Sample:	'20211010A(EM)
File name:	R-CDs 5.FDS
Run date:	'10:03:19, 06/09/2023
Operator:	Administrator
Comment:	'

Instrument
Model:	F-4700 FL Spectrophotometer
Serial number:	2019-001
ROM Version:	5J24010 00

Instrument parameters
Measurement type:	Wavelength scan
Scan mode:	Emission
Data mode:	Fluorescence
EX WL:	520.0 nm
EM  Start WL:	540.0 nm
EM  End WL:	800.0 nm
Scan speed:	1200 nm/min
Delay:	0.0 s
EX Slit:	10.0 nm
EM Slit:	10.0 nm
PMT Voltage:	670 V
Response:	0.002 s
Corrected spectra:	Off
Shutter control:	On

Processing performed
Savitsky-Golay smoothed
Smoothing order:	3
Number of points:	7
Number of times:	1

Peak integration
Integration method:	Rectangular
Sensitivity:	1
Threshold:	1.000

Peaks
No.	Start(nm)	Apex(nm)	End(nm)	Height(Data)	Valley(nm)	Valley(Data)
1	540.0	608.8	610.4	8963	610.4	8901
2	610.4	611.2	764.0	8940	764.0	124.7
3	764.0	764.8	774.0	130.0	774.0	89.47
4	774.0	773.8	778.8	92.47	778.8	77.36
5	778.8	779.8	783.8	80.63	783.8	64.51
6	783.8	785.2	786.2	67.95	786.2	61.52
7	786.2	787.8	790.6	64.63	790.6	55.22
8	790.6	791.4	793.0	58.60	793.0	50.80
9	793.0	793.8	800.0	56.57	800.0	46.13

Data points
nm	Data
540.0	946.6
540.2	963.6
540.4	965.3
540.6	962.2
540.8	975.7
541.0	988.9
541.2	1001
541.4	1012
541.6	1017
541.8	1028
542.0	1048
542.2	1061
542.4	1064
542.6	1066
542.8	1084
543.0	1109
543.2	1123
543.4	1128
543.6	1132
543.8	1138
544.0	1153
544.2	1180
544.4	1192
544.6	1202
544.8	1218
545.0	1231
545.2	1244
545.4	1268
545.6	1272
545.8	1281
546.0	1287
546.2	1301
546.4	1316
546.6	1339
546.8	1346
547.0	1352
547.2	1354
547.4	1373
547.6	1389
547.8	1414
548.0	1435
548.2	1446
548.4	1455
548.6	1469
548.8	1487
549.0	1508
549.2	1523
549.4	1540
549.6	1545
549.8	1550
550.0	1571
550.2	1592
550.4	1609
550.6	1636
550.8	1651
551.0	1672
551.2	1697
551.4	1705
551.6	1707
551.8	1719
552.0	1727
552.2	1751
552.4	1773
552.6	1792
552.8	1805
553.0	1825
553.2	1836
553.4	1865
553.6	1896
553.8	1926
554.0	1937
554.2	1951
554.4	1958
554.6	1983
554.8	2010
555.0	2033
555.2	2039
555.4	2062
555.6	2075
555.8	2097
556.0	2121
556.2	2138
556.4	2148
556.6	2174
556.8	2189
557.0	2204
557.2	2225
557.4	2245
557.6	2261
557.8	2289
558.0	2315
558.2	2332
558.4	2371
558.6	2389
558.8	2402
559.0	2438
559.2	2470
559.4	2496
559.6	2532
559.8	2539
560.0	2542
560.2	2563
560.4	2587
560.6	2615
560.8	2647
561.0	2675
561.2	2692
561.4	2722
561.6	2750
561.8	2770
562.0	2804
562.2	2838
562.4	2863
562.6	2893
562.8	2914
563.0	2939
563.2	2977
563.4	3005
563.6	3019
563.8	3025
564.0	3050
564.2	3078
564.4	3106
564.6	3129
564.8	3153
565.0	3169
565.2	3203
565.4	3238
565.6	3267
565.8	3300
566.0	3346
566.2	3378
566.4	3405
566.6	3435
566.8	3452
567.0	3472
567.2	3513
567.4	3552
567.6	3590
567.8	3630
568.0	3661
568.2	3690
568.4	3723
568.6	3744
568.8	3771
569.0	3799
569.2	3823
569.4	3850
569.6	3876
569.8	3895
570.0	3928
570.2	3978
570.4	4030
570.6	4069
570.8	4100
571.0	4105
571.2	4111
571.4	4146
571.6	4197
571.8	4233
572.0	4275
572.2	4300
572.4	4329
572.6	4355
572.8	4397
573.0	4437
573.2	4469
573.4	4508
573.6	4559
573.8	4605
574.0	4649
574.2	4676
574.4	4687
574.6	4705
574.8	4746
575.0	4804
575.2	4850
575.4	4866
575.6	4888
575.8	4896
576.0	4930
576.2	4969
576.4	5015
576.6	5064
576.8	5117
577.0	5146
577.2	5194
577.4	5233
577.6	5245
577.8	5270
578.0	5292
578.2	5317
578.4	5374
578.6	5430
578.8	5460
579.0	5502
579.2	5525
579.4	5563
579.6	5611
579.8	5647
580.0	5690
580.2	5733
580.4	5754
580.6	5782
580.8	5820
581.0	5850
581.2	5891
581.4	5933
581.6	5960
581.8	5996
582.0	6038
582.2	6069
582.4	6091
582.6	6133
582.8	6160
583.0	6205
583.2	6245
583.4	6284
583.6	6316
583.8	6370
584.0	6398
584.2	6418
584.4	6435
584.6	6458
584.8	6490
585.0	6534
585.2	6578
585.4	6625
585.6	6651
585.8	6688
586.0	6733
586.2	6771
586.4	6800
586.6	6833
586.8	6831
587.0	6859
587.2	6890
587.4	6939
587.6	6972
587.8	7004
588.0	7041
588.2	7087
588.4	7102
588.6	7134
588.8	7145
589.0	7167
589.2	7234
589.4	7266
589.6	7286
589.8	7324
590.0	7345
590.2	7391
590.4	7432
590.6	7428
590.8	7440
591.0	7457
591.2	7481
591.4	7540
591.6	7597
591.8	7651
592.0	7678
592.2	7677
592.4	7661
592.6	7685
592.8	7729
593.0	7767
593.2	7779
593.4	7803
593.6	7823
593.8	7883
594.0	7931
594.2	7976
594.4	8000
594.6	8020
594.8	8052
595.0	8072
595.2	8084
595.4	8105
595.6	8106
595.8	8109
596.0	8138
596.2	8130
596.4	8158
596.6	8204
596.8	8228
597.0	8253
597.2	8277
597.4	8269
597.6	8285
597.8	8335
598.0	8374
598.2	8405
598.4	8414
598.6	8416
598.8	8416
599.0	8431
599.2	8443
599.4	8471
599.6	8485
599.8	8509
600.0	8536
600.2	8557
600.4	8562
600.6	8591
600.8	8593
601.0	8588
601.2	8596
601.4	8602
601.6	8613
601.8	8656
602.0	8661
602.2	8686
602.4	8707
602.6	8695
602.8	8710
603.0	8745
603.2	8760
603.4	8814
603.6	8852
603.8	8834
604.0	8839
604.2	8834
604.4	8839
604.6	8849
604.8	8877
605.0	8859
605.2	8871
605.4	8872
605.6	8887
605.8	8878
606.0	8896
606.2	8875
606.4	8873
606.6	8885
606.8	8902
607.0	8908
607.2	8923
607.4	8910
607.6	8920
607.8	8942
608.0	8950
608.2	8950
608.4	8947
608.6	8950
608.8	8963
609.0	8955
609.2	8954
609.4	8958
609.6	8953
609.8	8962
610.0	8951
610.2	8913
610.4	8901
610.6	8901
610.8	8910
611.0	8938
611.2	8940
611.4	8925
611.6	8923
611.8	8911
612.0	8934
612.2	8937
612.4	8918
612.6	8923
612.8	8922
613.0	8904
613.2	8895
613.4	8864
613.6	8857
613.8	8846
614.0	8841
614.2	8814
614.4	8807
614.6	8800
614.8	8831
615.0	8814
615.2	8801
615.4	8770
615.6	8766
615.8	8747
616.0	8745
616.2	8729
616.4	8703
616.6	8684
616.8	8674
617.0	8673
617.2	8678
617.4	8671
617.6	8654
617.8	8629
618.0	8623
618.2	8629
618.4	8581
618.6	8531
618.8	8496
619.0	8476
619.2	8497
619.4	8517
619.6	8510
619.8	8515
620.0	8481
620.2	8443
620.4	8436
620.6	8412
620.8	8419
621.0	8405
621.2	8370
621.4	8322
621.6	8292
621.8	8264
622.0	8259
622.2	8267
622.4	8270
622.6	8268
622.8	8247
623.0	8227
623.2	8201
623.4	8161
623.6	8115
623.8	8105
624.0	8093
624.2	8076
624.4	8067
624.6	8002
624.8	7966
625.0	7963
625.2	7968
625.4	7975
625.6	7966
625.8	7905
626.0	7863
626.2	7836
626.4	7828
626.6	7828
626.8	7804
627.0	7768
627.2	7742
627.4	7721
627.6	7721
627.8	7688
628.0	7651
628.2	7631
628.4	7622
628.6	7596
628.8	7602
629.0	7562
629.2	7507
629.4	7490
629.6	7473
629.8	7437
630.0	7433
630.2	7408
630.4	7384
630.6	7371
630.8	7333
631.0	7301
631.2	7261
631.4	7215
631.6	7219
631.8	7226
632.0	7203
632.2	7192
632.4	7159
632.6	7109
632.8	7072
633.0	7046
633.2	7026
633.4	7043
633.6	7041
633.8	7010
634.0	6975
634.2	6923
634.4	6905
634.6	6909
634.8	6897
635.0	6863
635.2	6841
635.4	6789
635.6	6742
635.8	6731
636.0	6694
636.2	6668
636.4	6652
636.6	6628
636.8	6596
637.0	6612
637.2	6576
637.4	6553
637.6	6514
637.8	6466
638.0	6436
638.2	6408
638.4	6380
638.6	6378
638.8	6362
639.0	6337
639.2	6317
639.4	6280
639.6	6233
639.8	6221
640.0	6187
640.2	6155
640.4	6124
640.6	6100
640.8	6066
641.0	6044
641.2	6022
641.4	6004
641.6	5978
641.8	5944
642.0	5915
642.2	5888
642.4	5884
642.6	5861
642.8	5840
643.0	5813
643.2	5788
643.4	5765
643.6	5762
643.8	5724
644.0	5714
644.2	5701
644.4	5683
644.6	5632
644.8	5614
645.0	5567
645.2	5550
645.4	5523
645.6	5491
645.8	5454
646.0	5452
646.2	5431
646.4	5418
646.6	5377
646.8	5352
647.0	5316
647.2	5285
647.4	5270
647.6	5262
647.8	5229
648.0	5237
648.2	5198
648.4	5168
648.6	5165
648.8	5149
649.0	5132
649.2	5119
649.4	5067
649.6	5032
649.8	5012
650.0	4975
650.2	4961
650.4	4943
650.6	4888
650.8	4854
651.0	4863
651.2	4844
651.4	4827
651.6	4817
651.8	4772
652.0	4733
652.2	4730
652.4	4716
652.6	4681
652.8	4658
653.0	4631
653.2	4603
653.4	4590
653.6	4577
653.8	4557
654.0	4529
654.2	4507
654.4	4462
654.6	4430
654.8	4390
655.0	4383
655.2	4377
655.4	4371
655.6	4348
655.8	4317
656.0	4293
656.2	4275
656.4	4269
656.6	4246
656.8	4239
657.0	4196
657.2	4178
657.4	4144
657.6	4114
657.8	4079
658.0	4070
658.2	4048
658.4	4041
658.6	4028
658.8	4012
659.0	3988
659.2	3971
659.4	3941
659.6	3908
659.8	3896
660.0	3886
660.2	3871
660.4	3848
660.6	3806
660.8	3783
661.0	3773
661.2	3755
661.4	3738
661.6	3724
661.8	3695
662.0	3688
662.2	3686
662.4	3669
662.6	3649
662.8	3625
663.0	3593
663.2	3558
663.4	3538
663.6	3533
663.8	3518
664.0	3502
664.2	3493
664.4	3478
664.6	3442
664.8	3419
665.0	3385
665.2	3358
665.4	3354
665.6	3359
665.8	3337
666.0	3326
666.2	3296
666.4	3274
666.6	3257
666.8	3242
667.0	3213
667.2	3203
667.4	3186
667.6	3165
667.8	3149
668.0	3133
668.2	3115
668.4	3090
668.6	3076
668.8	3048
669.0	3036
669.2	3011
669.4	2990
669.6	2971
669.8	2970
670.0	2958
670.2	2951
670.4	2913
670.6	2883
670.8	2852
671.0	2835
671.2	2830
671.4	2828
671.6	2805
671.8	2793
672.0	2769
672.2	2759
672.4	2762
672.6	2755
672.8	2727
673.0	2712
673.2	2693
673.4	2671
673.6	2661
673.8	2640
674.0	2619
674.2	2605
674.4	2596
674.6	2587
674.8	2588
675.0	2562
675.2	2539
675.4	2518
675.6	2511
675.8	2496
676.0	2488
676.2	2462
676.4	2445
676.6	2436
676.8	2427
677.0	2405
677.2	2391
677.4	2371
677.6	2366
677.8	2343
678.0	2321
678.2	2302
678.4	2306
678.6	2298
678.8	2294
679.0	2278
679.2	2257
679.4	2238
679.6	2236
679.8	2226
680.0	2215
680.2	2206
680.4	2185
680.6	2159
680.8	2145
681.0	2139
681.2	2134
681.4	2123
681.6	2101
681.8	2070
682.0	2055
682.2	2040
682.4	2037
682.6	2027
682.8	2009
683.0	1993
683.2	1981
683.4	1967
683.6	1965
683.8	1944
684.0	1933
684.2	1922
684.4	1917
684.6	1906
684.8	1913
685.0	1894
685.2	1879
685.4	1854
685.6	1843
685.8	1827
686.0	1838
686.2	1835
686.4	1829
686.6	1816
686.8	1804
687.0	1785
687.2	1765
687.4	1755
687.6	1739
687.8	1729
688.0	1725
688.2	1717
688.4	1697
688.6	1688
688.8	1673
689.0	1663
689.2	1660
689.4	1644
689.6	1637
689.8	1619
690.0	1617
690.2	1605
690.4	1586
690.6	1574
690.8	1580
691.0	1566
691.2	1565
691.4	1546
691.6	1520
691.8	1520
692.0	1515
692.2	1503
692.4	1492
692.6	1484
692.8	1470
693.0	1474
693.2	1471
693.4	1466
693.6	1451
693.8	1446
694.0	1428
694.2	1414
694.4	1404
694.6	1399
694.8	1387
695.0	1383
695.2	1376
695.4	1367
695.6	1372
695.8	1361
696.0	1355
696.2	1342
696.4	1339
696.6	1332
696.8	1332
697.0	1312
697.2	1307
697.4	1294
697.6	1294
697.8	1290
698.0	1281
698.2	1264
698.4	1258
698.6	1253
698.8	1254
699.0	1248
699.2	1245
699.4	1239
699.6	1232
699.8	1225
700.0	1215
700.2	1199
700.4	1194
700.6	1189
700.8	1181
701.0	1177
701.2	1171
701.4	1166
701.6	1162
701.8	1148
702.0	1135
702.2	1137
702.4	1142
702.6	1139
702.8	1136
703.0	1120
703.2	1103
703.4	1092
703.6	1083
703.8	1079
704.0	1083
704.2	1082
704.4	1075
704.6	1063
704.8	1051
705.0	1045
705.2	1043
705.4	1038
705.6	1029
705.8	1030
706.0	1026
706.2	1013
706.4	1005
706.6	999.5
706.8	991.4
707.0	991.1
707.2	987.0
707.4	978.6
707.6	971.1
707.8	969.3
708.0	966.0
708.2	955.5
708.4	948.7
708.6	941.6
708.8	932.8
709.0	926.1
709.2	927.3
709.4	920.4
709.6	921.7
709.8	915.4
710.0	905.7
710.2	899.3
710.4	902.3
710.6	892.4
710.8	893.1
711.0	888.5
711.2	876.9
711.4	871.3
711.6	865.1
711.8	849.7
712.0	842.4
712.2	839.8
712.4	836.7
712.6	838.2
712.8	835.6
713.0	827.7
713.2	823.0
713.4	817.3
713.6	815.2
713.8	812.3
714.0	804.6
714.2	793.1
714.4	790.0
714.6	780.1
714.8	772.2
715.0	770.3
715.2	768.8
715.4	764.2
715.6	763.7
715.8	752.5
716.0	742.6
716.2	740.4
716.4	731.2
716.6	725.2
716.8	722.9
717.0	716.7
717.2	709.5
717.4	704.2
717.6	697.5
717.8	697.9
718.0	692.4
718.2	690.0
718.4	678.1
718.6	675.8
718.8	679.4
719.0	681.1
719.2	677.7
719.4	671.6
719.6	654.1
719.8	650.6
720.0	646.4
720.2	639.9
720.4	632.5
720.6	620.8
720.8	609.8
721.0	606.4
721.2	609.4
721.4	606.8
721.6	607.0
721.8	609.3
722.0	605.7
722.2	600.9
722.4	596.6
722.6	585.7
722.8	583.2
723.0	582.0
723.2	575.5
723.4	573.8
723.6	564.4
723.8	560.5
724.0	563.6
724.2	566.4
724.4	562.1
724.6	553.7
724.8	541.7
725.0	536.1
725.2	533.1
725.4	532.3
725.6	526.4
725.8	520.9
726.0	525.1
726.2	520.8
726.4	516.9
726.6	512.8
726.8	508.0
727.0	496.2
727.2	493.5
727.4	484.5
727.6	480.1
727.8	482.6
728.0	486.3
728.2	481.1
728.4	478.9
728.6	476.7
728.8	474.2
729.0	475.5
729.2	472.0
729.4	469.4
729.6	463.3
729.8	454.2
730.0	449.1
730.2	446.3
730.4	442.5
730.6	439.7
730.8	434.0
731.0	426.1
731.2	422.4
731.4	422.2
731.6	422.6
731.8	420.2
732.0	413.9
732.2	409.7
732.4	409.9
732.6	411.6
732.8	410.9
733.0	405.5
733.2	402.3
733.4	394.6
733.6	391.1
733.8	384.6
734.0	379.1
734.2	374.6
734.4	377.2
734.6	378.8
734.8	377.8
735.0	375.2
735.2	375.3
735.4	369.6
735.6	364.7
735.8	363.8
736.0	355.6
736.2	352.7
736.4	352.7
736.6	351.1
736.8	348.3
737.0	348.2
737.2	345.6
737.4	344.5
737.6	342.9
737.8	342.8
738.0	336.5
738.2	329.1
738.4	325.1
738.6	324.1
738.8	321.3
739.0	320.3
739.2	318.6
739.4	313.4
739.6	311.9
739.8	311.6
740.0	312.1
740.2	311.0
740.4	310.9
740.6	304.4
740.8	300.6
741.0	295.9
741.2	294.0
741.4	293.7
741.6	291.7
741.8	291.2
742.0	289.5
742.2	285.6
742.4	282.9
742.6	280.2
742.8	275.6
743.0	274.3
743.2	269.8
743.4	268.4
743.6	269.5
743.8	268.9
744.0	264.3
744.2	258.0
744.4	255.6
744.6	254.4
744.8	255.5
745.0	259.3
745.2	260.2
745.4	257.1
745.6	255.8
745.8	249.0
746.0	246.4
746.2	245.4
746.4	244.7
746.6	239.9
746.8	238.2
747.0	233.8
747.2	236.3
747.4	235.9
747.6	237.4
747.8	233.6
748.0	231.0
748.2	224.9
748.4	222.1
748.6	216.2
748.8	216.7
749.0	215.9
749.2	215.4
749.4	215.9
749.6	216.4
749.8	216.4
750.0	215.2
750.2	211.4
750.4	202.5
750.6	198.7
750.8	199.2
751.0	198.9
751.2	199.4
751.4	200.9
751.6	197.0
751.8	196.1
752.0	197.4
752.2	193.6
752.4	188.8
752.6	188.7
752.8	185.3
753.0	187.4
753.2	187.6
753.4	186.6
753.6	181.4
753.8	180.7
754.0	180.2
754.2	184.2
754.4	184.3
754.6	183.9
754.8	180.2
755.0	177.9
755.2	176.5
755.4	176.5
755.6	173.9
755.8	173.5
756.0	171.4
756.2	167.3
756.4	163.2
756.6	160.6
756.8	159.4
757.0	160.0
757.2	160.0
757.4	157.5
757.6	155.9
757.8	154.4
758.0	156.7
758.2	159.6
758.4	158.7
758.6	157.3
758.8	154.6
759.0	151.8
759.2	151.7
759.4	152.2
759.6	149.2
759.8	149.0
760.0	147.7
760.2	146.9
760.4	144.7
760.6	142.4
760.8	141.2
761.0	142.8
761.2	142.5
761.4	141.9
761.6	140.1
761.8	141.0
762.0	141.9
762.2	141.8
762.4	139.1
762.6	135.5
762.8	134.9
763.0	136.7
763.2	136.6
763.4	135.4
763.6	132.3
763.8	125.6
764.0	124.7
764.2	124.8
764.4	126.3
764.6	127.4
764.8	130.0
765.0	129.2
765.2	128.1
765.4	125.5
765.6	123.5
765.8	118.8
766.0	119.0
766.2	119.9
766.4	120.3
766.6	118.4
766.8	118.8
767.0	117.4
767.2	116.1
767.4	116.4
767.6	114.6
767.8	110.4
768.0	109.8
768.2	111.2
768.4	111.6
768.6	110.7
768.8	108.7
769.0	107.8
769.2	105.3
769.4	109.0
769.6	110.7
769.8	108.8
770.0	106.5
770.2	103.5
770.4	99.45
770.6	101.2
770.8	101.2
771.0	103.1
771.2	104.9
771.4	103.3
771.6	102.7
771.8	100.3
772.0	97.09
772.2	96.24
772.4	94.33
772.6	93.33
772.8	92.50
773.0	90.89
773.2	91.23
773.4	90.48
773.6	90.39
773.8	92.47
774.0	89.47
774.2	92.40
774.4	91.66
774.6	91.46
774.8	91.87
775.0	90.16
775.2	86.48
775.4	88.07
775.6	87.40
775.8	90.50
776.0	88.61
776.2	87.77
776.4	86.43
776.6	85.07
776.8	85.45
777.0	85.82
777.2	82.42
777.4	83.15
777.6	83.41
777.8	82.89
778.0	81.77
778.2	79.70
778.4	77.41
778.6	77.87
778.8	77.36
779.0	78.09
779.2	78.32
779.4	78.88
779.6	79.97
779.8	80.63
780.0	77.95
780.2	74.82
780.4	71.53
780.6	71.25
780.8	72.14
781.0	74.28
781.2	74.97
781.4	74.22
781.6	73.43
781.8	72.04
782.0	69.14
782.2	66.52
782.4	64.78
782.6	64.71
782.8	65.44
783.0	67.39
783.2	68.15
783.4	66.96
783.6	65.39
783.8	64.51
784.0	65.39
784.2	66.57
784.4	67.47
784.6	67.07
784.8	66.24
785.0	66.66
785.2	67.95
785.4	67.41
785.6	66.50
785.8	63.98
786.0	61.90
786.2	61.52
786.4	61.85
786.6	63.76
786.8	64.34
787.0	64.32
787.2	64.04
787.4	63.82
787.6	64.22
787.8	64.63
788.0	62.65
788.2	62.74
788.4	61.04
788.6	59.90
788.8	60.49
789.0	60.20
789.2	59.23
789.4	58.99
789.6	57.59
789.8	56.84
790.0	57.05
790.2	56.20
790.4	56.09
790.6	55.22
790.8	55.56
791.0	56.45
791.2	57.23
791.4	58.60
791.6	57.63
791.8	56.87
792.0	54.82
792.2	53.45
792.4	52.53
792.6	53.77
792.8	50.92
793.0	50.80
793.2	51.09
793.4	52.62
793.6	54.46
793.8	56.57
794.0	55.59
794.2	53.95
794.4	53.05
794.6	51.26
794.8	52.57
795.0	54.47
795.2	54.40
795.4	53.76
795.6	52.36
795.8	50.28
796.0	51.22
796.2	51.02
796.4	50.31
796.6	51.47
796.8	51.85
797.0	52.11
797.2	51.59
797.4	50.76
797.6	49.12
797.8	49.51
798.0	49.98
798.2	49.35
798.4	48.56
798.6	49.88
798.8	48.95
799.0	48.45
799.2	48.80
799.4	47.84
799.6	48.26
799.8	48.00
800.0	46.13

