Sample:	'20211010A(EM)
File name:	R-CDs 10.FDS
Run date:	'10:28:56, 06/09/2023
Operator:	Administrator
Comment:	'

Instrument
Model:	F-4700 FL Spectrophotometer
Serial number:	2019-001
ROM Version:	5J24010 00

Instrument parameters
Measurement type:	Wavelength scan
Scan mode:	Emission
Data mode:	Fluorescence
EX WL:	520.0 nm
EM  Start WL:	540.0 nm
EM  End WL:	800.0 nm
Scan speed:	1200 nm/min
Delay:	0.0 s
EX Slit:	10.0 nm
EM Slit:	10.0 nm
PMT Voltage:	660 V
Response:	0.002 s
Corrected spectra:	Off
Shutter control:	On

Processing performed
Savitsky-Golay smoothed
Smoothing order:	3
Number of points:	7
Number of times:	1

Peak integration
Integration method:	Rectangular
Sensitivity:	1
Threshold:	1.000

Peaks
No.	Start(nm)	Apex(nm)	End(nm)	Height(Data)	Valley(nm)	Valley(Data)
1	540.0	608.8	609.6	9485	609.6	9436
2	609.6	611.2	613.4	9492	613.4	9349
3	613.4	614.0	767.4	9404	767.4	121.0
4	767.4	768.0	782.8	124.9	782.8	72.00
5	782.8	783.4	787.4	75.85	787.4	63.06
6	787.4	788.2	790.6	67.55	790.6	57.14
7	790.6	793.0	793.6	61.99	793.6	53.33
8	793.6	794.4	797.8	58.84	797.8	50.83

Data points
nm	Data
540.0	740.0
540.2	751.5
540.4	762.3
540.6	772.9
540.8	783.1
541.0	793.9
541.2	810.2
541.4	823.2
541.6	822.3
541.8	833.8
542.0	850.6
542.2	861.8
542.4	881.3
542.6	895.2
542.8	895.4
543.0	906.3
543.2	922.2
543.4	932.2
543.6	938.2
543.8	948.3
544.0	957.7
544.2	974.0
544.4	983.8
544.6	992.0
544.8	1001
545.0	1016
545.2	1039
545.4	1052
545.6	1056
545.8	1063
546.0	1071
546.2	1083
546.4	1112
546.6	1131
546.8	1154
547.0	1170
547.2	1181
547.4	1192
547.6	1197
547.8	1204
548.0	1225
548.2	1244
548.4	1265
548.6	1285
548.8	1290
549.0	1304
549.2	1320
549.4	1333
549.6	1348
549.8	1365
550.0	1376
550.2	1400
550.4	1421
550.6	1441
550.8	1453
551.0	1467
551.2	1461
551.4	1466
551.6	1482
551.8	1519
552.0	1545
552.2	1582
552.4	1592
552.6	1602
552.8	1617
553.0	1641
553.2	1656
553.4	1684
553.6	1698
553.8	1722
554.0	1734
554.2	1742
554.4	1753
554.6	1780
554.8	1799
555.0	1833
555.2	1862
555.4	1891
555.6	1914
555.8	1939
556.0	1956
556.2	1972
556.4	1992
556.6	2015
556.8	2034
557.0	2047
557.2	2065
557.4	2085
557.6	2115
557.8	2146
558.0	2176
558.2	2195
558.4	2217
558.6	2243
558.8	2260
559.0	2284
559.2	2308
559.4	2323
559.6	2341
559.8	2368
560.0	2396
560.2	2433
560.4	2467
560.6	2490
560.8	2509
561.0	2541
561.2	2561
561.4	2595
561.6	2622
561.8	2644
562.0	2662
562.2	2678
562.4	2688
562.6	2736
562.8	2783
563.0	2821
563.2	2867
563.4	2890
563.6	2909
563.8	2936
564.0	2971
564.2	2998
564.4	3042
564.6	3071
564.8	3094
565.0	3124
565.2	3151
565.4	3164
565.6	3186
565.8	3217
566.0	3249
566.2	3291
566.4	3319
566.6	3345
566.8	3378
567.0	3405
567.2	3431
567.4	3452
567.6	3482
567.8	3522
568.0	3571
568.2	3603
568.4	3663
568.6	3693
568.8	3728
569.0	3760
569.2	3780
569.4	3809
569.6	3866
569.8	3898
570.0	3938
570.2	3959
570.4	3987
570.6	4024
570.8	4067
571.0	4118
571.2	4156
571.4	4167
571.6	4210
571.8	4224
572.0	4264
572.2	4307
572.4	4345
572.6	4371
572.8	4427
573.0	4468
573.2	4513
573.4	4566
573.6	4598
573.8	4610
574.0	4640
574.2	4679
574.4	4721
574.6	4787
574.8	4825
575.0	4867
575.2	4907
575.4	4951
575.6	4991
575.8	5028
576.0	5052
576.2	5078
576.4	5108
576.6	5160
576.8	5205
577.0	5250
577.2	5272
577.4	5292
577.6	5316
577.8	5359
578.0	5418
578.2	5463
578.4	5502
578.6	5559
578.8	5585
579.0	5620
579.2	5658
579.4	5680
579.6	5712
579.8	5763
580.0	5784
580.2	5840
580.4	5885
580.6	5934
580.8	5985
581.0	6026
581.2	6065
581.4	6118
581.6	6146
581.8	6172
582.0	6197
582.2	6225
582.4	6283
582.6	6334
582.8	6366
583.0	6397
583.2	6430
583.4	6444
583.6	6476
583.8	6513
584.0	6559
584.2	6625
584.4	6679
584.6	6699
584.8	6717
585.0	6767
585.2	6818
585.4	6862
585.6	6880
585.8	6881
586.0	6908
586.2	6968
586.4	7027
586.6	7080
586.8	7133
587.0	7164
587.2	7212
587.4	7246
587.6	7284
587.8	7326
588.0	7356
588.2	7379
588.4	7404
588.6	7428
588.8	7475
589.0	7518
589.2	7533
589.4	7559
589.6	7584
589.8	7609
590.0	7655
590.2	7688
590.4	7714
590.6	7742
590.8	7770
591.0	7807
591.2	7850
591.4	7886
591.6	7940
591.8	7981
592.0	8004
592.2	8021
592.4	8036
592.6	8060
592.8	8112
593.0	8156
593.2	8187
593.4	8200
593.6	8219
593.8	8262
594.0	8304
594.2	8330
594.4	8347
594.6	8373
594.8	8404
595.0	8457
595.2	8469
595.4	8481
595.6	8498
595.8	8549
596.0	8584
596.2	8629
596.4	8630
596.6	8662
596.8	8688
597.0	8708
597.2	8721
597.4	8752
597.6	8768
597.8	8798
598.0	8820
598.2	8840
598.4	8862
598.6	8900
598.8	8906
599.0	8915
599.2	8937
599.4	8963
599.6	8973
599.8	9011
600.0	9020
600.2	9045
600.4	9040
600.6	9042
600.8	9034
601.0	9063
601.2	9114
601.4	9158
601.6	9192
601.8	9214
602.0	9209
602.2	9216
602.4	9234
602.6	9218
602.8	9237
603.0	9223
603.2	9234
603.4	9257
603.6	9285
603.8	9312
604.0	9328
604.2	9326
604.4	9321
604.6	9309
604.8	9296
605.0	9342
605.2	9341
605.4	9372
605.6	9376
605.8	9371
606.0	9365
606.2	9404
606.4	9411
606.6	9436
606.8	9435
607.0	9426
607.2	9435
607.4	9430
607.6	9434
607.8	9421
608.0	9417
608.2	9446
608.4	9476
608.6	9482
608.8	9485
609.0	9479
609.2	9472
609.4	9458
609.6	9436
609.8	9437
610.0	9451
610.2	9465
610.4	9469
610.6	9459
610.8	9472
611.0	9482
611.2	9492
611.4	9474
611.6	9477
611.8	9476
612.0	9483
612.2	9465
612.4	9457
612.6	9436
612.8	9441
613.0	9418
613.2	9381
613.4	9349
613.6	9359
613.8	9384
614.0	9404
614.2	9399
614.4	9393
614.6	9381
614.8	9385
615.0	9382
615.2	9343
615.4	9325
615.6	9304
615.8	9309
616.0	9308
616.2	9293
616.4	9252
616.6	9236
616.8	9233
617.0	9264
617.2	9279
617.4	9259
617.6	9203
617.8	9166
618.0	9159
618.2	9153
618.4	9170
618.6	9160
618.8	9126
619.0	9100
619.2	9071
619.4	9040
619.6	9028
619.8	9025
620.0	9018
620.2	9003
620.4	8988
620.6	8959
620.8	8939
621.0	8943
621.2	8934
621.4	8924
621.6	8903
621.8	8869
622.0	8864
622.2	8865
622.4	8843
622.6	8817
622.8	8792
623.0	8755
623.2	8746
623.4	8747
623.6	8717
623.8	8707
624.0	8696
624.2	8663
624.4	8631
624.6	8593
624.8	8532
625.0	8534
625.2	8539
625.4	8526
625.6	8499
625.8	8458
626.0	8427
626.2	8441
626.4	8460
626.6	8420
626.8	8370
627.0	8323
627.2	8272
627.4	8252
627.6	8232
627.8	8202
628.0	8191
628.2	8187
628.4	8165
628.6	8143
628.8	8100
629.0	8067
629.2	8041
629.4	7997
629.6	7975
629.8	7949
630.0	7939
630.2	7918
630.4	7897
630.6	7874
630.8	7852
631.0	7840
631.2	7829
631.4	7788
631.6	7740
631.8	7719
632.0	7685
632.2	7682
632.4	7666
632.6	7630
632.8	7596
633.0	7578
633.2	7550
633.4	7530
633.6	7506
633.8	7459
634.0	7433
634.2	7412
634.4	7394
634.6	7368
634.8	7353
635.0	7308
635.2	7285
635.4	7244
635.6	7224
635.8	7203
636.0	7177
636.2	7146
636.4	7114
636.6	7070
636.8	7036
637.0	7006
637.2	6973
637.4	6958
637.6	6925
637.8	6902
638.0	6875
638.2	6844
638.4	6828
638.6	6835
638.8	6816
639.0	6782
639.2	6727
639.4	6666
639.6	6627
639.8	6627
640.0	6609
640.2	6583
640.4	6556
640.6	6535
640.8	6510
641.0	6497
641.2	6461
641.4	6441
641.6	6417
641.8	6378
642.0	6352
642.2	6342
642.4	6308
642.6	6277
642.8	6243
643.0	6194
643.2	6193
643.4	6205
643.6	6193
643.8	6153
644.0	6129
644.2	6082
644.4	6055
644.6	6029
644.8	5984
645.0	5921
645.2	5904
645.4	5885
645.6	5875
645.8	5857
646.0	5833
646.2	5800
646.4	5786
646.6	5757
646.8	5732
647.0	5693
647.2	5669
647.4	5645
647.6	5620
647.8	5614
648.0	5621
648.2	5581
648.4	5533
648.6	5480
648.8	5440
649.0	5429
649.2	5427
649.4	5403
649.6	5373
649.8	5348
650.0	5329
650.2	5294
650.4	5258
650.6	5243
650.8	5202
651.0	5185
651.2	5165
651.4	5145
651.6	5130
651.8	5110
652.0	5076
652.2	5061
652.4	5030
652.6	5003
652.8	4974
653.0	4928
653.2	4908
653.4	4902
653.6	4874
653.8	4854
654.0	4828
654.2	4794
654.4	4785
654.6	4769
654.8	4736
655.0	4715
655.2	4687
655.4	4655
655.6	4653
655.8	4644
656.0	4616
656.2	4582
656.4	4563
656.6	4530
656.8	4507
657.0	4490
657.2	4472
657.4	4446
657.6	4438
657.8	4415
658.0	4366
658.2	4330
658.4	4300
658.6	4278
658.8	4270
659.0	4259
659.2	4246
659.4	4236
659.6	4201
659.8	4181
660.0	4165
660.2	4160
660.4	4155
660.6	4137
660.8	4092
661.0	4056
661.2	4023
661.4	4009
661.6	3989
661.8	3963
662.0	3952
662.2	3947
662.4	3930
662.6	3905
662.8	3881
663.0	3836
663.2	3814
663.4	3783
663.6	3760
663.8	3733
664.0	3720
664.2	3698
664.4	3676
664.6	3650
664.8	3639
665.0	3626
665.2	3610
665.4	3589
665.6	3574
665.8	3558
666.0	3547
666.2	3531
666.4	3505
666.6	3466
666.8	3456
667.0	3439
667.2	3432
667.4	3410
667.6	3400
667.8	3383
668.0	3372
668.2	3357
668.4	3322
668.6	3282
668.8	3254
669.0	3237
669.2	3223
669.4	3217
669.6	3203
669.8	3188
670.0	3176
670.2	3162
670.4	3154
670.6	3116
670.8	3103
671.0	3077
671.2	3052
671.4	3027
671.6	3015
671.8	2992
672.0	2986
672.2	2974
672.4	2949
672.6	2921
672.8	2913
673.0	2902
673.2	2892
673.4	2881
673.6	2861
673.8	2848
674.0	2849
674.2	2823
674.4	2801
674.6	2775
674.8	2756
675.0	2746
675.2	2738
675.4	2725
675.6	2707
675.8	2678
676.0	2652
676.2	2635
676.4	2624
676.6	2608
676.8	2593
677.0	2576
677.2	2566
677.4	2556
677.6	2548
677.8	2516
678.0	2500
678.2	2484
678.4	2472
678.6	2463
678.8	2460
679.0	2432
679.2	2421
679.4	2401
679.6	2383
679.8	2376
680.0	2369
680.2	2353
680.4	2342
680.6	2321
680.8	2312
681.0	2302
681.2	2296
681.4	2279
681.6	2250
681.8	2227
682.0	2222
682.2	2215
682.4	2213
682.6	2193
682.8	2171
683.0	2149
683.2	2133
683.4	2118
683.6	2107
683.8	2093
684.0	2086
684.2	2068
684.4	2054
684.6	2049
684.8	2021
685.0	2002
685.2	2002
685.4	1998
685.6	1988
685.8	1983
686.0	1951
686.2	1934
686.4	1928
686.6	1916
686.8	1904
687.0	1896
687.2	1890
687.4	1889
687.6	1877
687.8	1856
688.0	1839
688.2	1816
688.4	1807
688.6	1812
688.8	1802
689.0	1794
689.2	1782
689.4	1755
689.6	1741
689.8	1749
690.0	1745
690.2	1746
690.4	1733
690.6	1705
690.8	1686
691.0	1678
691.2	1671
691.4	1663
691.6	1654
691.8	1637
692.0	1631
692.2	1615
692.4	1610
692.6	1599
692.8	1595
693.0	1590
693.2	1587
693.4	1578
693.6	1562
693.8	1552
694.0	1545
694.2	1538
694.4	1527
694.6	1522
694.8	1506
695.0	1498
695.2	1484
695.4	1472
695.6	1461
695.8	1456
696.0	1453
696.2	1449
696.4	1435
696.6	1424
696.8	1419
697.0	1414
697.2	1404
697.4	1385
697.6	1366
697.8	1360
698.0	1356
698.2	1358
698.4	1357
698.6	1350
698.8	1342
699.0	1339
699.2	1334
699.4	1323
699.6	1314
699.8	1306
700.0	1297
700.2	1298
700.4	1296
700.6	1284
700.8	1278
701.0	1270
701.2	1258
701.4	1257
701.6	1241
701.8	1227
702.0	1216
702.2	1209
702.4	1207
702.6	1209
702.8	1207
703.0	1202
703.2	1193
703.4	1184
703.6	1175
703.8	1174
704.0	1170
704.2	1158
704.4	1158
704.6	1146
704.8	1133
705.0	1130
705.2	1116
705.4	1100
705.6	1103
705.8	1103
706.0	1100
706.2	1095
706.4	1085
706.6	1073
706.8	1064
707.0	1061
707.2	1052
707.4	1050
707.6	1049
707.8	1051
708.0	1049
708.2	1037
708.4	1025
708.6	1017
708.8	1007
709.0	1006
709.2	996.3
709.4	990.7
709.6	988.2
709.8	981.3
710.0	962.6
710.2	956.6
710.4	951.2
710.6	956.3
710.8	957.2
711.0	958.8
711.2	944.0
711.4	935.0
711.6	927.2
711.8	920.0
712.0	912.2
712.2	909.7
712.4	909.4
712.6	901.9
712.8	893.4
713.0	887.0
713.2	878.2
713.4	869.6
713.6	868.8
713.8	868.5
714.0	864.6
714.2	854.4
714.4	843.7
714.6	837.3
714.8	829.2
715.0	830.3
715.2	826.7
715.4	817.1
715.6	810.8
715.8	801.7
716.0	797.1
716.2	791.7
716.4	792.7
716.6	784.6
716.8	779.4
717.0	773.6
717.2	774.8
717.4	773.2
717.6	776.1
717.8	762.4
718.0	752.7
718.2	741.4
718.4	741.2
718.6	735.8
718.8	730.2
719.0	713.5
719.2	705.6
719.4	698.6
719.6	703.4
719.8	701.0
720.0	704.4
720.2	695.4
720.4	685.1
720.6	675.1
720.8	667.1
721.0	660.4
721.2	668.7
721.4	667.6
721.6	663.8
721.8	661.3
722.0	649.7
722.2	639.5
722.4	635.8
722.6	633.1
722.8	637.0
723.0	634.0
723.2	627.6
723.4	624.2
723.6	619.2
723.8	617.0
724.0	613.0
724.2	603.6
724.4	596.0
724.6	587.4
724.8	584.3
725.0	576.0
725.2	566.1
725.4	567.3
725.6	563.7
725.8	563.9
726.0	567.7
726.2	561.0
726.4	551.5
726.6	544.8
726.8	540.3
727.0	541.3
727.2	545.6
727.4	545.7
727.6	539.7
727.8	525.9
728.0	514.8
728.2	511.3
728.4	513.6
728.6	514.6
728.8	506.4
729.0	497.4
729.2	493.3
729.4	493.2
729.6	496.6
729.8	500.4
730.0	492.0
730.2	485.1
730.4	482.4
730.6	477.3
730.8	473.1
731.0	472.8
731.2	468.4
731.4	464.1
731.6	460.9
731.8	462.7
732.0	456.4
732.2	452.1
732.4	443.0
732.6	434.4
732.8	429.6
733.0	430.9
733.2	426.2
733.4	426.1
733.6	423.9
733.8	417.8
734.0	415.9
734.2	414.6
734.4	411.5
734.6	409.7
734.8	411.8
735.0	400.4
735.2	393.7
735.4	389.6
735.6	386.2
735.8	384.9
736.0	386.1
736.2	385.3
736.4	391.0
736.6	390.3
736.8	385.8
737.0	381.1
737.2	369.0
737.4	366.2
737.6	367.4
737.8	367.9
738.0	363.5
738.2	358.3
738.4	350.2
738.6	348.2
738.8	343.7
739.0	341.3
739.2	336.8
739.4	335.9
739.6	337.1
739.8	338.1
740.0	336.5
740.2	333.9
740.4	332.2
740.6	332.6
740.8	332.6
741.0	329.3
741.2	327.2
741.4	323.6
741.6	318.2
741.8	314.5
742.0	313.8
742.2	307.9
742.4	306.6
742.6	304.2
742.8	302.0
743.0	301.6
743.2	302.2
743.4	296.0
743.6	295.7
743.8	291.2
744.0	287.1
744.2	284.7
744.4	285.5
744.6	280.4
744.8	277.1
745.0	271.0
745.2	270.4
745.4	271.2
745.6	272.0
745.8	274.5
746.0	269.1
746.2	262.9
746.4	262.1
746.6	258.8
746.8	254.4
747.0	256.4
747.2	255.2
747.4	254.3
747.6	257.1
747.8	254.0
748.0	250.6
748.2	247.3
748.4	243.8
748.6	239.5
748.8	235.9
749.0	233.9
749.2	234.1
749.4	236.4
749.6	238.7
749.8	239.1
750.0	235.1
750.2	234.6
750.4	230.0
750.6	225.1
750.8	225.0
751.0	221.2
751.2	218.2
751.4	217.5
751.6	215.2
751.8	211.3
752.0	211.9
752.2	210.1
752.4	207.3
752.6	206.3
752.8	206.1
753.0	201.8
753.2	198.4
753.4	194.9
753.6	192.6
753.8	196.5
754.0	197.2
754.2	196.0
754.4	196.5
754.6	196.2
754.8	195.8
755.0	196.4
755.2	189.1
755.4	186.1
755.6	186.2
755.8	184.3
756.0	180.5
756.2	178.4
756.4	176.1
756.6	173.2
756.8	174.2
757.0	175.4
757.2	175.8
757.4	172.5
757.6	170.8
757.8	165.7
758.0	167.3
758.2	168.9
758.4	171.9
758.6	170.2
758.8	169.5
759.0	166.9
759.2	166.0
759.4	163.2
759.6	163.5
759.8	162.1
760.0	161.1
760.2	158.2
760.4	157.1
760.6	155.8
760.8	156.1
761.0	154.4
761.2	153.5
761.4	151.9
761.6	150.1
761.8	149.2
762.0	148.8
762.2	149.1
762.4	147.5
762.6	145.8
762.8	145.2
763.0	145.7
763.2	142.9
763.4	143.8
763.6	140.9
763.8	140.3
764.0	142.5
764.2	143.8
764.4	141.1
764.6	139.6
764.8	137.1
765.0	135.0
765.2	135.0
765.4	136.0
765.6	134.2
765.8	130.8
766.0	131.8
766.2	128.7
766.4	128.5
766.6	129.1
766.8	125.7
767.0	121.8
767.2	121.9
767.4	121.0
767.6	122.8
767.8	124.2
768.0	124.9
768.2	124.2
768.4	123.6
768.6	123.3
768.8	121.4
769.0	120.0
769.2	118.1
769.4	114.3
769.6	114.3
769.8	112.4
770.0	111.9
770.2	112.4
770.4	111.1
770.6	109.3
770.8	110.7
771.0	107.8
771.2	107.1
771.4	106.0
771.6	104.3
771.8	104.9
772.0	104.8
772.2	103.2
772.4	102.5
772.6	101.9
772.8	100.3
773.0	101.3
773.2	98.96
773.4	98.62
773.6	99.03
773.8	98.74
774.0	98.71
774.2	99.90
774.4	99.79
774.6	98.48
774.8	96.96
775.0	92.96
775.2	93.47
775.4	94.31
775.6	93.69
775.8	92.26
776.0	89.27
776.2	85.86
776.4	87.00
776.6	88.65
776.8	89.93
777.0	90.21
777.2	87.90
777.4	84.68
777.6	82.05
777.8	83.06
778.0	84.35
778.2	85.50
778.4	85.35
778.6	84.13
778.8	83.42
779.0	84.14
779.2	82.08
779.4	81.84
779.6	80.69
779.8	79.93
780.0	79.47
780.2	80.37
780.4	80.56
780.6	81.74
780.8	82.34
781.0	81.33
781.2	76.44
781.4	73.32
781.6	73.79
781.8	74.46
782.0	75.58
782.2	75.57
782.4	73.04
782.6	72.23
782.8	72.00
783.0	74.03
783.2	75.69
783.4	75.85
783.6	75.24
783.8	75.18
784.0	73.38
784.2	74.28
784.4	74.02
784.6	72.65
784.8	71.14
785.0	68.66
785.2	68.88
785.4	69.93
785.6	70.30
785.8	70.35
786.0	69.12
786.2	66.68
786.4	68.35
786.6	69.31
786.8	67.65
787.0	65.76
787.2	63.53
787.4	63.06
787.6	64.28
787.8	65.77
788.0	66.63
788.2	67.55
788.4	66.93
788.6	66.32
788.8	66.69
789.0	64.91
789.2	64.73
789.4	63.57
789.6	62.84
789.8	62.67
790.0	62.73
790.2	60.42
790.4	58.42
790.6	57.14
790.8	58.29
791.0	58.52
791.2	60.37
791.4	61.29
791.6	60.23
791.8	60.25
792.0	58.86
792.2	57.86
792.4	60.21
792.6	61.63
792.8	61.76
793.0	61.99
793.2	58.10
793.4	53.87
793.6	53.33
793.8	54.24
794.0	55.30
794.2	57.75
794.4	58.84
794.6	57.81
794.8	58.24
795.0	57.40
795.2	55.06
795.4	53.75
795.6	54.44
795.8	54.38
796.0	55.00
796.2	54.19
796.4	53.80
796.6	53.70
796.8	54.09
797.0	54.13
797.2	53.30
797.4	52.23
797.6	51.16
797.8	50.83
798.0	52.76
798.2	53.56
798.4	53.66
798.6	53.72
798.8	53.63
799.0	54.12
799.2	55.58
799.4	52.80
799.6	49.35
799.8	49.01
800.0	54.83

