Sample:	'20211010A(EM)
File name:	R-CDs 9 900uM.FDS
Run date:	'10:27:27, 06/09/2023
Operator:	Administrator
Comment:	'

Instrument
Model:	F-4700 FL Spectrophotometer
Serial number:	2019-001
ROM Version:	5J24010 00

Instrument parameters
Measurement type:	Wavelength scan
Scan mode:	Emission
Data mode:	Fluorescence
EX WL:	520.0 nm
EM  Start WL:	540.0 nm
EM  End WL:	800.0 nm
Scan speed:	1200 nm/min
Delay:	0.0 s
EX Slit:	10.0 nm
EM Slit:	10.0 nm
PMT Voltage:	660 V
Response:	0.002 s
Corrected spectra:	Off
Shutter control:	On

Processing performed
Savitsky-Golay smoothed
Smoothing order:	3
Number of points:	7
Number of times:	1

Peak integration
Integration method:	Rectangular
Sensitivity:	1
Threshold:	1.000

Peaks
No.	Start(nm)	Apex(nm)	End(nm)	Height(Data)	Valley(nm)	Valley(Data)
1	540.0	615.2	616.0	1884	616.0	1866
2	616.0	617.6	620.4	1891	620.4	1858
3	620.4	621.2	728.6	1878	728.6	152.3
4	728.6	729.2	737.6	155.5	737.6	113.0
5	737.6	738.2	740.8	117.8	740.8	101.5
6	740.8	741.0	745.4	105.0	745.4	82.81
7	745.4	747.0	749.8	87.36	749.8	73.53
8	749.8	750.8	752.4	76.04	752.4	65.32
9	752.4	753.0	756.2	71.37	756.2	58.75
10	756.2	756.6	761.8	63.55	761.8	49.80
11	761.8	762.6	769.2	52.92	769.2	38.16
12	769.2	770.8	775.2	40.86	775.2	31.58
13	775.2	776.6	780.6	33.20	780.6	25.31
14	780.6	781.2	787.2	30.16	787.2	22.63
15	787.2	788.4	791.0	25.01	791.0	22.57
16	791.0	791.6	793.6	24.41	793.6	19.50
17	793.6	794.6	796.0	24.17	796.0	19.80
18	796.0	796.8	797.8	22.63	797.8	18.30

Data points
nm	Data
540.0	228.3
540.2	224.4
540.4	227.0
540.6	233.3
540.8	239.2
541.0	244.9
541.2	248.2
541.4	246.5
541.6	247.0
541.8	240.2
542.0	239.0
542.2	245.6
542.4	251.9
542.6	253.8
542.8	253.6
543.0	252.5
543.2	256.8
543.4	262.3
543.6	264.2
543.8	264.7
544.0	265.4
544.2	270.7
544.4	274.0
544.6	274.5
544.8	273.9
545.0	278.6
545.2	282.7
545.4	285.6
545.6	286.8
545.8	287.6
546.0	290.5
546.2	291.2
546.4	287.2
546.6	287.7
546.8	290.6
547.0	295.7
547.2	300.2
547.4	301.7
547.6	301.8
547.8	305.5
548.0	305.4
548.2	302.6
548.4	298.2
548.6	303.4
548.8	307.9
549.0	314.1
549.2	317.8
549.4	320.5
549.6	322.9
549.8	324.1
550.0	323.8
550.2	325.2
550.4	327.7
550.6	334.3
550.8	334.9
551.0	337.1
551.2	339.3
551.4	344.8
551.6	346.8
551.8	350.1
552.0	349.5
552.2	347.4
552.4	345.6
552.6	349.5
552.8	346.3
553.0	349.9
553.2	358.6
553.4	363.7
553.6	364.3
553.8	370.4
554.0	372.2
554.2	372.5
554.4	375.6
554.6	378.7
554.8	373.9
555.0	376.7
555.2	380.7
555.4	380.1
555.6	381.7
555.8	385.1
556.0	386.0
556.2	388.1
556.4	394.1
556.6	396.6
556.8	402.1
557.0	406.2
557.2	404.6
557.4	405.5
557.6	408.8
557.8	413.2
558.0	417.9
558.2	419.7
558.4	420.3
558.6	426.2
558.8	430.8
559.0	432.4
559.2	437.8
559.4	445.0
559.6	452.0
559.8	459.2
560.0	459.2
560.2	448.3
560.4	451.7
560.6	456.5
560.8	462.6
561.0	468.1
561.2	472.9
561.4	468.5
561.6	472.8
561.8	476.3
562.0	481.2
562.2	484.3
562.4	490.4
562.6	490.7
562.8	496.9
563.0	500.1
563.2	502.5
563.4	502.9
563.6	506.4
563.8	507.6
564.0	513.6
564.2	521.8
564.4	524.8
564.6	529.9
564.8	536.2
565.0	537.7
565.2	548.5
565.4	556.7
565.6	555.0
565.8	549.5
566.0	548.1
566.2	550.6
566.4	561.8
566.6	568.1
566.8	569.2
567.0	571.0
567.2	576.5
567.4	588.4
567.6	594.6
567.8	598.8
568.0	600.1
568.2	606.9
568.4	609.1
568.6	611.5
568.8	615.0
569.0	625.2
569.2	639.3
569.4	646.7
569.6	643.8
569.8	636.8
570.0	633.1
570.2	644.1
570.4	655.7
570.6	661.8
570.8	665.2
571.0	673.3
571.2	674.1
571.4	684.3
571.6	690.6
571.8	699.3
572.0	707.0
572.2	715.5
572.4	712.2
572.6	711.0
572.8	709.9
573.0	722.7
573.2	736.0
573.4	745.4
573.6	748.9
573.8	748.0
574.0	745.8
574.2	752.0
574.4	761.0
574.6	764.7
574.8	777.7
575.0	790.2
575.2	791.4
575.4	792.0
575.6	796.8
575.8	799.0
576.0	814.7
576.2	826.7
576.4	828.6
576.6	834.2
576.8	839.2
577.0	838.5
577.2	846.8
577.4	848.3
577.6	855.2
577.8	868.8
578.0	876.5
578.2	882.3
578.4	891.4
578.6	894.3
578.8	900.5
579.0	910.4
579.2	912.6
579.4	915.5
579.6	916.6
579.8	919.8
580.0	932.2
580.2	949.5
580.4	961.0
580.6	968.6
580.8	967.9
581.0	968.8
581.2	976.5
581.4	985.8
581.6	998.0
581.8	1006
582.0	1011
582.2	1019
582.4	1025
582.6	1036
582.8	1053
583.0	1067
583.2	1065
583.4	1068
583.6	1071
583.8	1069
584.0	1080
584.2	1091
584.4	1092
584.6	1098
584.8	1100
585.0	1092
585.2	1096
585.4	1103
585.6	1124
585.8	1138
586.0	1149
586.2	1163
586.4	1168
586.6	1172
586.8	1174
587.0	1168
587.2	1175
587.4	1190
587.6	1194
587.8	1207
588.0	1206
588.2	1216
588.4	1231
588.6	1242
588.8	1242
589.0	1255
589.2	1252
589.4	1261
589.6	1260
589.8	1271
590.0	1279
590.2	1295
590.4	1308
590.6	1321
590.8	1322
591.0	1338
591.2	1341
591.4	1334
591.6	1336
591.8	1346
592.0	1355
592.2	1370
592.4	1376
592.6	1374
592.8	1378
593.0	1390
593.2	1390
593.4	1398
593.6	1412
593.8	1423
594.0	1437
594.2	1438
594.4	1426
594.6	1429
594.8	1446
595.0	1453
595.2	1467
595.4	1468
595.6	1476
595.8	1486
596.0	1496
596.2	1494
596.4	1490
596.6	1495
596.8	1503
597.0	1510
597.2	1516
597.4	1521
597.6	1524
597.8	1546
598.0	1557
598.2	1566
598.4	1568
598.6	1566
598.8	1563
599.0	1575
599.2	1584
599.4	1605
599.6	1613
599.8	1613
600.0	1608
600.2	1611
600.4	1609
600.6	1623
600.8	1632
601.0	1645
601.2	1648
601.4	1661
601.6	1658
601.8	1657
602.0	1659
602.2	1673
602.4	1674
602.6	1685
602.8	1697
603.0	1692
603.2	1704
603.4	1703
603.6	1697
603.8	1699
604.0	1717
604.2	1721
604.4	1737
604.6	1733
604.8	1731
605.0	1733
605.2	1746
605.4	1757
605.6	1762
605.8	1762
606.0	1776
606.2	1783
606.4	1783
606.6	1777
606.8	1778
607.0	1770
607.2	1777
607.4	1779
607.6	1786
607.8	1790
608.0	1802
608.2	1800
608.4	1806
608.6	1808
608.8	1809
609.0	1815
609.2	1810
609.4	1812
609.6	1810
609.8	1814
610.0	1810
610.2	1825
610.4	1825
610.6	1838
610.8	1834
611.0	1837
611.2	1848
611.4	1862
611.6	1857
611.8	1849
612.0	1839
612.2	1837
612.4	1850
612.6	1865
612.8	1867
613.0	1862
613.2	1865
613.4	1865
613.6	1867
613.8	1868
614.0	1861
614.2	1858
614.4	1871
614.6	1878
614.8	1881
615.0	1879
615.2	1884
615.4	1881
615.6	1881
615.8	1876
616.0	1866
616.2	1867
616.4	1880
616.6	1876
616.8	1881
617.0	1877
617.2	1881
617.4	1883
617.6	1891
617.8	1880
618.0	1888
618.2	1887
618.4	1889
618.6	1887
618.8	1887
619.0	1879
619.2	1876
619.4	1875
619.6	1882
619.8	1879
620.0	1874
620.2	1866
620.4	1858
620.6	1864
620.8	1874
621.0	1873
621.2	1878
621.4	1877
621.6	1873
621.8	1876
622.0	1874
622.2	1873
622.4	1873
622.6	1872
622.8	1863
623.0	1868
623.2	1862
623.4	1868
623.6	1868
623.8	1863
624.0	1862
624.2	1870
624.4	1860
624.6	1857
624.8	1845
625.0	1830
625.2	1828
625.4	1836
625.6	1832
625.8	1830
626.0	1832
626.2	1832
626.4	1829
626.6	1822
626.8	1817
627.0	1817
627.2	1831
627.4	1826
627.6	1819
627.8	1806
628.0	1793
628.2	1792
628.4	1797
628.6	1786
628.8	1790
629.0	1799
629.2	1788
629.4	1792
629.6	1786
629.8	1776
630.0	1772
630.2	1769
630.4	1768
630.6	1775
630.8	1774
631.0	1767
631.2	1762
631.4	1756
631.6	1756
631.8	1740
632.0	1729
632.2	1727
632.4	1732
632.6	1738
632.8	1734
633.0	1719
633.2	1721
633.4	1725
633.6	1719
633.8	1713
634.0	1694
634.2	1681
634.4	1681
634.6	1678
634.8	1678
635.0	1689
635.2	1688
635.4	1689
635.6	1679
635.8	1665
636.0	1667
636.2	1669
636.4	1662
636.6	1657
636.8	1641
637.0	1634
637.2	1628
637.4	1625
637.6	1616
637.8	1607
638.0	1604
638.2	1609
638.4	1602
638.6	1601
638.8	1592
639.0	1586
639.2	1582
639.4	1585
639.6	1577
639.8	1562
640.0	1546
640.2	1541
640.4	1542
640.6	1554
640.8	1558
641.0	1559
641.2	1549
641.4	1542
641.6	1533
641.8	1522
642.0	1518
642.2	1510
642.4	1504
642.6	1494
642.8	1484
643.0	1481
643.2	1486
643.4	1484
643.6	1481
643.8	1471
644.0	1459
644.2	1459
644.4	1462
644.6	1457
644.8	1449
645.0	1446
645.2	1439
645.4	1440
645.6	1438
645.8	1423
646.0	1405
646.2	1397
646.4	1400
646.6	1406
646.8	1406
647.0	1396
647.2	1385
647.4	1382
647.6	1384
647.8	1385
648.0	1379
648.2	1373
648.4	1363
648.6	1350
648.8	1336
649.0	1326
649.2	1318
649.4	1325
649.6	1330
649.8	1330
650.0	1323
650.2	1314
650.4	1296
650.6	1290
650.8	1295
651.0	1293
651.2	1290
651.4	1278
651.6	1264
651.8	1260
652.0	1270
652.2	1268
652.4	1267
652.6	1254
652.8	1243
653.0	1236
653.2	1238
653.4	1231
653.6	1228
653.8	1224
654.0	1220
654.2	1216
654.4	1213
654.6	1205
654.8	1192
655.0	1183
655.2	1173
655.4	1170
655.6	1171
655.8	1174
656.0	1168
656.2	1156
656.4	1158
656.6	1162
656.8	1157
657.0	1147
657.2	1136
657.4	1115
657.6	1118
657.8	1128
658.0	1127
658.2	1120
658.4	1113
658.6	1088
658.8	1089
659.0	1084
659.2	1085
659.4	1086
659.6	1083
659.8	1066
660.0	1062
660.2	1047
660.4	1051
660.6	1054
660.8	1054
661.0	1055
661.2	1043
661.4	1035
661.6	1027
661.8	1027
662.0	1024
662.2	1022
662.4	1010
662.6	995.7
662.8	986.8
663.0	988.1
663.2	988.3
663.4	984.7
663.6	981.9
663.8	969.4
664.0	970.8
664.2	964.4
664.4	971.6
664.6	970.0
664.8	966.2
665.0	949.7
665.2	944.6
665.4	936.5
665.6	942.5
665.8	942.7
666.0	938.6
666.2	926.3
666.4	917.9
666.6	901.8
666.8	899.2
667.0	893.7
667.2	886.4
667.4	889.3
667.6	889.5
667.8	883.8
668.0	884.3
668.2	874.5
668.4	861.0
668.6	859.7
668.8	859.4
669.0	855.2
669.2	850.2
669.4	847.0
669.6	833.2
669.8	824.1
670.0	823.7
670.2	824.3
670.4	818.3
670.6	824.7
670.8	821.7
671.0	817.4
671.2	813.9
671.4	812.1
671.6	804.6
671.8	801.8
672.0	802.9
672.2	803.9
672.4	791.4
672.6	779.6
672.8	775.9
673.0	769.1
673.2	766.6
673.4	769.8
673.6	761.9
673.8	756.6
674.0	756.3
674.2	750.1
674.4	740.3
674.6	736.6
674.8	726.8
675.0	727.8
675.2	723.3
675.4	720.8
675.6	716.5
675.8	712.8
676.0	706.2
676.2	703.5
676.4	694.1
676.6	692.1
676.8	693.6
677.0	695.6
677.2	693.6
677.4	684.8
677.6	680.4
677.8	675.9
678.0	676.5
678.2	681.2
678.4	678.6
678.6	675.4
678.8	671.3
679.0	660.1
679.2	652.3
679.4	650.6
679.6	646.7
679.8	651.1
680.0	641.7
680.2	632.0
680.4	630.4
680.6	622.4
680.8	615.8
681.0	621.5
681.2	616.5
681.4	613.6
681.6	612.8
681.8	602.9
682.0	603.8
682.2	601.7
682.4	599.1
682.6	595.6
682.8	596.0
683.0	590.0
683.2	597.6
683.4	592.0
683.6	583.0
683.8	573.2
684.0	571.1
684.2	560.9
684.4	565.3
684.6	566.1
684.8	563.8
685.0	562.1
685.2	564.7
685.4	561.7
685.6	557.6
685.8	548.8
686.0	536.8
686.2	530.3
686.4	530.6
686.6	532.5
686.8	531.2
687.0	527.7
687.2	522.5
687.4	524.5
687.6	518.7
687.8	514.9
688.0	514.1
688.2	510.8
688.4	506.9
688.6	510.1
688.8	502.8
689.0	501.0
689.2	501.2
689.4	497.8
689.6	492.3
689.8	491.7
690.0	488.2
690.2	484.0
690.4	478.3
690.6	475.8
690.8	472.0
691.0	467.7
691.2	465.8
691.4	463.6
691.6	459.0
691.8	454.2
692.0	446.9
692.2	448.3
692.4	445.6
692.6	449.4
692.8	452.2
693.0	446.4
693.2	442.6
693.4	437.9
693.6	426.9
693.8	426.1
694.0	431.5
694.2	433.4
694.4	436.2
694.6	427.9
694.8	422.5
695.0	421.0
695.2	424.6
695.4	423.0
695.6	421.5
695.8	413.3
696.0	409.1
696.2	405.7
696.4	406.9
696.6	405.0
696.8	407.8
697.0	401.4
697.2	400.4
697.4	392.7
697.6	392.2
697.8	392.3
698.0	395.7
698.2	393.1
698.4	392.4
698.6	389.5
698.8	390.9
699.0	385.1
699.2	379.2
699.4	374.9
699.6	369.5
699.8	370.1
700.0	371.4
700.2	368.8
700.4	368.9
700.6	372.5
700.8	372.9
701.0	370.6
701.2	365.7
701.4	361.1
701.6	357.6
701.8	358.3
702.0	357.9
702.2	355.7
702.4	354.6
702.6	352.2
702.8	349.7
703.0	348.2
703.2	342.2
703.4	336.9
703.6	335.8
703.8	335.5
704.0	337.2
704.2	336.3
704.4	329.9
704.6	326.6
704.8	323.8
705.0	326.5
705.2	324.2
705.4	322.7
705.6	325.3
705.8	321.0
706.0	319.2
706.2	314.9
706.4	308.1
706.6	309.6
706.8	314.5
707.0	311.3
707.2	310.5
707.4	303.4
707.6	302.1
707.8	302.8
708.0	302.8
708.2	303.1
708.4	302.0
708.6	299.7
708.8	298.9
709.0	294.2
709.2	292.4
709.4	289.3
709.6	289.9
709.8	290.6
710.0	288.3
710.2	282.8
710.4	281.2
710.6	275.7
710.8	275.5
711.0	277.7
711.2	279.8
711.4	280.7
711.6	280.4
711.8	277.2
712.0	273.2
712.2	267.7
712.4	262.1
712.6	259.4
712.8	257.3
713.0	259.3
713.2	259.4
713.4	260.5
713.6	258.1
713.8	257.3
714.0	251.2
714.2	251.2
714.4	245.2
714.6	245.1
714.8	248.7
715.0	251.8
715.2	247.5
715.4	249.2
715.6	240.3
715.8	235.3
716.0	237.2
716.2	236.2
716.4	233.5
716.6	234.7
716.8	232.9
717.0	231.7
717.2	232.2
717.4	230.5
717.6	228.9
717.8	228.1
718.0	226.9
718.2	225.3
718.4	220.2
718.6	215.8
718.8	211.3
719.0	214.4
719.2	214.2
719.4	215.2
719.6	211.6
719.8	206.2
720.0	202.2
720.2	203.9
720.4	201.6
720.6	200.8
720.8	199.9
721.0	199.4
721.2	199.7
721.4	199.6
721.6	202.0
721.8	201.2
722.0	193.2
722.2	188.4
722.4	183.1
722.6	181.2
722.8	185.7
723.0	186.8
723.2	184.7
723.4	187.7
723.6	188.1
723.8	185.1
724.0	183.8
724.2	176.8
724.4	175.0
724.6	173.2
724.8	173.3
725.0	172.7
725.2	174.5
725.4	172.8
725.6	172.7
725.8	170.7
726.0	169.9
726.2	167.6
726.4	166.7
726.6	164.1
726.8	161.6
727.0	161.1
727.2	159.1
727.4	154.9
727.6	155.1
727.8	153.6
728.0	153.0
728.2	153.5
728.4	153.4
728.6	152.3
728.8	154.2
729.0	155.3
729.2	155.5
729.4	153.8
729.6	151.3
729.8	149.5
730.0	146.9
730.2	143.4
730.4	142.7
730.6	143.3
730.8	143.0
731.0	144.0
731.2	143.5
731.4	141.7
731.6	139.9
731.8	140.1
732.0	138.0
732.2	136.6
732.4	135.9
732.6	135.2
732.8	133.2
733.0	133.3
733.2	133.1
733.4	133.1
733.6	131.6
733.8	127.4
734.0	127.2
734.2	126.9
734.4	127.6
734.6	127.7
734.8	125.4
735.0	124.4
735.2	125.3
735.4	125.5
735.6	127.5
735.8	124.5
736.0	121.4
736.2	121.4
736.4	119.3
736.6	120.2
736.8	119.2
737.0	115.9
737.2	115.1
737.4	113.2
737.6	113.0
737.8	115.3
738.0	116.0
738.2	117.8
738.4	116.4
738.6	113.7
738.8	111.5
739.0	109.4
739.2	108.1
739.4	108.7
739.6	103.4
739.8	104.0
740.0	103.1
740.2	102.6
740.4	102.0
740.6	103.4
740.8	101.5
741.0	105.0
741.2	104.7
741.4	104.4
741.6	101.9
741.8	101.6
742.0	99.98
742.2	100.6
742.4	100.1
742.6	98.56
742.8	97.16
743.0	98.07
743.2	95.61
743.4	92.45
743.6	91.11
743.8	90.97
744.0	92.14
744.2	93.70
744.4	94.03
744.6	91.66
744.8	88.53
745.0	87.40
745.2	84.11
745.4	82.81
745.6	84.80
745.8	85.77
746.0	84.39
746.2	84.04
746.4	83.48
746.6	84.57
746.8	87.28
747.0	87.36
747.2	86.39
747.4	81.16
747.6	77.85
747.8	77.16
748.0	81.63
748.2	84.03
748.4	85.11
748.6	81.45
748.8	78.60
749.0	75.63
749.2	76.11
749.4	74.71
749.6	74.38
749.8	73.53
750.0	75.13
750.2	74.17
750.4	74.01
750.6	75.34
750.8	76.04
751.0	74.49
751.2	75.66
751.4	73.90
751.6	71.81
751.8	70.06
752.0	67.61
752.2	65.44
752.4	65.32
752.6	68.00
752.8	69.96
753.0	71.37
753.2	71.14
753.4	69.51
753.6	67.65
753.8	67.58
754.0	66.73
754.2	67.16
754.4	66.56
754.6	67.04
754.8	66.18
755.0	64.59
755.2	63.44
755.4	64.17
755.6	62.13
755.8	61.81
756.0	60.37
756.2	58.75
756.4	61.17
756.6	63.55
756.8	62.20
757.0	62.37
757.2	61.31
757.4	58.98
757.6	57.30
757.8	56.01
758.0	55.16
758.2	56.55
758.4	57.96
758.6	58.54
758.8	56.16
759.0	54.38
759.2	54.59
759.4	54.91
759.6	56.22
759.8	55.63
760.0	54.33
760.2	52.91
760.4	53.12
760.6	51.75
760.8	51.80
761.0	51.03
761.2	49.93
761.4	51.19
761.6	50.71
761.8	49.80
762.0	49.82
762.2	50.70
762.4	51.27
762.6	52.92
762.8	51.60
763.0	50.69
763.2	48.50
763.4	48.48
763.6	49.09
763.8	48.68
764.0	46.98
764.2	45.50
764.4	43.81
764.6	44.92
764.8	46.48
765.0	47.39
765.2	46.86
765.4	45.26
765.6	45.39
765.8	45.61
766.0	46.07
766.2	45.36
766.4	44.64
766.6	42.64
766.8	43.63
767.0	42.90
767.2	43.02
767.4	41.62
767.6	40.99
767.8	39.11
768.0	39.38
768.2	40.13
768.4	41.06
768.6	40.25
768.8	40.81
769.0	38.45
769.2	38.16
769.4	39.71
769.6	40.06
769.8	39.15
770.0	39.56
770.2	38.75
770.4	40.13
770.6	40.77
770.8	40.86
771.0	38.79
771.2	36.73
771.4	36.32
771.6	36.68
771.8	35.95
772.0	36.82
772.2	36.29
772.4	36.54
772.6	36.61
772.8	35.93
773.0	35.13
773.2	35.81
773.4	35.27
773.6	35.50
773.8	34.70
774.0	33.96
774.2	34.09
774.4	34.12
774.6	32.56
774.8	31.91
775.0	31.64
775.2	31.58
775.4	32.85
775.6	32.75
775.8	32.33
776.0	32.72
776.2	32.93
776.4	32.07
776.6	33.20
776.8	31.52
777.0	32.00
777.2	32.06
777.4	31.60
777.6	30.27
777.8	32.21
778.0	30.94
778.2	30.67
778.4	30.23
778.6	29.62
778.8	29.77
779.0	32.19
779.2	31.01
779.4	29.79
779.6	31.06
779.8	29.70
780.0	29.52
780.2	28.83
780.4	26.44
780.6	25.31
780.8	27.37
781.0	28.14
781.2	30.16
781.4	30.06
781.6	28.85
781.8	27.97
782.0	27.42
782.2	27.55
782.4	27.88
782.6	27.33
782.8	26.75
783.0	26.98
783.2	27.74
783.4	28.02
783.6	26.88
783.8	26.53
784.0	26.38
784.2	26.61
784.4	27.13
784.6	27.73
784.8	26.09
785.0	26.24
785.2	25.81
785.4	25.10
785.6	24.62
785.8	25.33
786.0	23.94
786.2	25.02
786.4	23.98
786.6	23.69
786.8	22.88
787.0	23.32
787.2	22.63
787.4	23.35
787.6	22.75
787.8	23.97
788.0	23.18
788.2	24.05
788.4	25.01
788.6	24.93
788.8	24.07
789.0	23.98
789.2	23.49
789.4	23.55
789.6	24.45
789.8	24.30
790.0	24.33
790.2	23.74
790.4	23.51
790.6	23.65
790.8	23.12
791.0	22.57
791.2	23.69
791.4	24.18
791.6	24.41
791.8	24.12
792.0	23.68
792.2	23.54
792.4	23.08
792.6	23.69
792.8	23.80
793.0	21.52
793.2	20.34
793.4	20.32
793.6	19.50
793.8	21.34
794.0	22.63
794.2	23.31
794.4	23.80
794.6	24.17
794.8	23.02
795.0	21.99
795.2	20.80
795.4	21.19
795.6	21.67
795.8	20.91
796.0	19.80
796.2	19.82
796.4	20.51
796.6	21.90
796.8	22.63
797.0	22.44
797.2	20.83
797.4	19.32
797.6	18.39
797.8	18.30
798.0	18.34
798.2	19.74
798.4	19.49
798.6	19.03
798.8	19.48
799.0	19.76
799.2	19.16
799.4	19.31
799.6	18.43
799.8	18.38
800.0	20.11

