Sample:	'20211010A(EM)
File name:	G-NI 5 500.FDS
Run date:	'17:42:44, 06/19/2023
Operator:	Administrator
Comment:	'

Instrument
Model:	F-4700 FL Spectrophotometer
Serial number:	2019-001
ROM Version:	5J24010 00

Instrument parameters
Measurement type:	Wavelength scan
Scan mode:	Emission
Data mode:	Fluorescence
EX WL:	400.0 nm
EM  Start WL:	420.0 nm
EM  End WL:	800.0 nm
Scan speed:	1200 nm/min
Delay:	0.0 s
EX Slit:	10.0 nm
EM Slit:	10.0 nm
PMT Voltage:	500 V
Response:	0.002 s
Corrected spectra:	Off
Shutter control:	On

Processing performed
Savitsky-Golay smoothed
Smoothing order:	3
Number of points:	7
Number of times:	1

Peak integration
Integration method:	Rectangular
Sensitivity:	1
Threshold:	1.000

Peaks
No.	Start(nm)	Apex(nm)	End(nm)	Height(Data)	Valley(nm)	Valley(Data)
1	420.0	546.8	547.8	7231	547.8	7205
2	547.8	549.4	755.2	7233	755.2	23.81
3	755.2	756.0	777.6	26.20	777.6	11.74
4	777.6	778.4	780.8	13.12	780.8	11.00
5	780.8	781.4	785.4	12.10	785.4	10.06
6	785.4	786.6	788.4	11.51	788.4	10.02
7	788.4	790.8	792.2	11.76	792.2	10.74
8	792.2	793.6	797.2	12.17	797.2	11.09

Data points
nm	Data
420.0	2.888
420.2	3.193
420.4	3.277
420.6	3.208
420.8	3.010
421.0	2.909
421.2	2.856
421.4	2.664
421.6	2.488
421.8	2.600
422.0	2.876
422.2	3.029
422.4	3.051
422.6	3.277
422.8	3.170
423.0	3.028
423.2	3.286
423.4	2.984
423.6	2.918
423.8	3.124
424.0	3.044
424.2	3.095
424.4	3.275
424.6	3.235
424.8	3.145
425.0	3.087
425.2	3.025
425.4	2.933
425.6	2.904
425.8	2.940
426.0	2.716
426.2	2.705
426.4	2.910
426.6	3.026
426.8	3.158
427.0	3.123
427.2	3.058
427.4	2.961
427.6	3.066
427.8	3.015
428.0	2.962
428.2	2.946
428.4	3.099
428.6	3.297
428.8	3.483
429.0	3.277
429.2	3.186
429.4	2.949
429.6	2.903
429.8	3.006
430.0	2.824
430.2	2.807
430.4	2.888
430.6	2.892
430.8	3.004
431.0	3.193
431.2	2.958
431.4	3.210
431.6	3.244
431.8	3.202
432.0	3.155
432.2	3.211
432.4	2.979
432.6	2.969
432.8	2.948
433.0	2.894
433.2	2.874
433.4	2.988
433.6	3.032
433.8	3.083
434.0	2.888
434.2	2.852
434.4	2.872
434.6	2.988
434.8	3.174
435.0	3.580
435.2	3.574
435.4	3.654
435.6	3.553
435.8	3.443
436.0	3.332
436.2	3.520
436.4	3.517
436.6	3.397
436.8	3.278
437.0	3.206
437.2	3.176
437.4	3.119
437.6	3.304
437.8	3.614
438.0	3.864
438.2	4.028
438.4	4.042
438.6	3.675
438.8	3.523
439.0	3.340
439.2	3.501
439.4	3.711
439.6	3.921
439.8	3.955
440.0	3.810
440.2	3.657
440.4	3.970
440.6	3.853
440.8	3.811
441.0	3.607
441.2	3.407
441.4	3.572
441.6	3.622
441.8	3.698
442.0	3.802
442.2	3.870
442.4	3.961
442.6	4.040
442.8	3.815
443.0	3.933
443.2	3.746
443.4	3.641
443.6	3.785
443.8	3.798
444.0	3.953
444.2	4.203
444.4	4.193
444.6	4.007
444.8	4.139
445.0	4.090
445.2	4.157
445.4	4.058
445.6	4.034
445.8	3.894
446.0	3.882
446.2	4.073
446.4	4.368
446.6	4.577
446.8	4.581
447.0	4.386
447.2	4.454
447.4	4.599
447.6	4.767
447.8	4.857
448.0	4.511
448.2	4.172
448.4	4.550
448.6	4.931
448.8	5.093
449.0	5.132
449.2	4.895
449.4	4.547
449.6	4.622
449.8	4.849
450.0	4.887
450.2	5.027
450.4	5.224
450.6	5.118
450.8	5.243
451.0	5.263
451.2	5.152
451.4	5.501
451.6	5.613
451.8	5.369
452.0	5.538
452.2	5.422
452.4	5.142
452.6	5.552
452.8	5.699
453.0	5.544
453.2	5.638
453.4	5.834
453.6	5.713
453.8	5.963
454.0	6.094
454.2	6.008
454.4	5.930
454.6	6.190
454.8	5.952
455.0	5.959
455.2	6.217
455.4	6.799
455.6	7.105
455.8	7.350
456.0	7.111
456.2	6.790
456.4	6.819
456.6	7.179
456.8	7.124
457.0	7.090
457.2	7.024
457.4	7.133
457.6	7.586
457.8	8.287
458.0	8.410
458.2	8.325
458.4	8.164
458.6	7.895
458.8	8.002
459.0	8.123
459.2	8.265
459.4	8.705
459.6	8.996
459.8	9.315
460.0	9.407
460.2	9.472
460.4	9.862
460.6	9.999
460.8	9.776
461.0	9.614
461.2	9.713
461.4	10.32
461.6	10.81
461.8	11.18
462.0	11.00
462.2	10.73
462.4	10.98
462.6	11.25
462.8	11.44
463.0	11.98
463.2	11.99
463.4	12.54
463.6	12.56
463.8	12.63
464.0	12.87
464.2	13.15
464.4	13.51
464.6	14.30
464.8	14.23
465.0	14.44
465.2	14.65
465.4	14.61
465.6	14.94
465.8	15.44
466.0	15.87
466.2	16.85
466.4	17.23
466.6	18.09
466.8	18.31
467.0	18.85
467.2	19.30
467.4	19.67
467.6	19.73
467.8	20.60
468.0	20.37
468.2	21.29
468.4	21.68
468.6	22.03
468.8	22.45
469.0	23.62
469.2	23.99
469.4	25.25
469.6	25.72
469.8	25.81
470.0	25.81
470.2	26.44
470.4	26.65
470.6	27.67
470.8	28.30
471.0	30.01
471.2	31.07
471.4	31.89
471.6	32.34
471.8	33.24
472.0	33.62
472.2	34.88
472.4	35.56
472.6	37.34
472.8	38.83
473.0	40.61
473.2	41.33
473.4	41.88
473.6	42.68
473.8	44.57
474.0	45.76
474.2	47.42
474.4	47.64
474.6	48.83
474.8	50.46
475.0	52.02
475.2	53.53
475.4	55.86
475.6	56.99
475.8	58.91
476.0	61.25
476.2	63.07
476.4	65.21
476.6	67.11
476.8	67.84
477.0	69.07
477.2	71.30
477.4	73.59
477.6	75.96
477.8	78.45
478.0	79.51
478.2	81.51
478.4	83.87
478.6	86.58
478.8	89.18
479.0	93.01
479.2	95.17
479.4	97.72
479.6	101.1
479.8	104.6
480.0	106.5
480.2	110.1
480.4	113.4
480.6	117.3
480.8	122.3
481.0	126.7
481.2	128.3
481.4	131.7
481.6	134.1
481.8	137.7
482.0	141.7
482.2	145.9
482.4	149.0
482.6	153.7
482.8	158.5
483.0	163.4
483.2	168.2
483.4	172.8
483.6	178.0
483.8	183.2
484.0	190.3
484.2	194.7
484.4	199.1
484.6	203.9
484.8	209.9
485.0	215.1
485.2	222.5
485.4	228.7
485.6	234.9
485.8	242.0
486.0	247.9
486.2	253.2
486.4	258.9
486.6	266.7
486.8	274.5
487.0	281.7
487.2	289.7
487.4	298.3
487.6	303.2
487.8	311.1
488.0	318.3
488.2	325.2
488.4	335.3
488.6	344.2
488.8	350.9
489.0	360.3
489.2	368.4
489.4	377.4
489.6	388.0
489.8	396.8
490.0	408.6
490.2	422.8
490.4	433.9
490.6	445.3
490.8	456.8
491.0	464.8
491.2	475.9
491.4	486.6
491.6	497.6
491.8	511.6
492.0	524.5
492.2	534.9
492.4	547.7
492.6	558.6
492.8	573.0
493.0	585.7
493.2	597.8
493.4	614.6
493.6	629.7
493.8	645.2
494.0	660.5
494.2	671.4
494.4	684.1
494.6	701.7
494.8	716.6
495.0	734.9
495.2	748.8
495.4	764.9
495.6	781.8
495.8	801.8
496.0	820.2
496.2	838.5
496.4	855.7
496.6	870.6
496.8	884.3
497.0	902.9
497.2	921.6
497.4	939.3
497.6	960.4
497.8	977.5
498.0	991.8
498.2	1014
498.4	1033
498.6	1054
498.8	1077
499.0	1102
499.2	1124
499.4	1147
499.6	1163
499.8	1181
500.0	1203
500.2	1231
500.4	1258
500.6	1281
500.8	1304
501.0	1327
501.2	1354
501.4	1381
501.6	1401
501.8	1422
502.0	1443
502.2	1467
502.4	1492
502.6	1522
502.8	1552
503.0	1584
503.2	1610
503.4	1635
503.6	1653
503.8	1678
504.0	1703
504.2	1736
504.4	1765
504.6	1798
504.8	1822
505.0	1849
505.2	1874
505.4	1908
505.6	1941
505.8	1978
506.0	2006
506.2	2034
506.4	2058
506.6	2086
506.8	2123
507.0	2159
507.2	2187
507.4	2215
507.6	2243
507.8	2273
508.0	2316
508.2	2350
508.4	2386
508.6	2414
508.8	2437
509.0	2462
509.2	2502
509.4	2541
509.6	2582
509.8	2624
510.0	2660
510.2	2683
510.4	2712
510.6	2745
510.8	2774
511.0	2818
511.2	2855
511.4	2884
511.6	2913
511.8	2947
512.0	2985
512.2	3022
512.4	3054
512.6	3093
512.8	3121
513.0	3159
513.2	3194
513.4	3224
513.6	3261
513.8	3305
514.0	3339
514.2	3383
514.4	3424
514.6	3462
514.8	3503
515.0	3537
515.2	3563
515.4	3587
515.6	3617
515.8	3655
516.0	3694
516.2	3740
516.4	3779
516.6	3816
516.8	3847
517.0	3884
517.2	3922
517.4	3963
517.6	3996
517.8	4028
518.0	4057
518.2	4081
518.4	4111
518.6	4153
518.8	4194
519.0	4237
519.2	4289
519.4	4324
519.6	4359
519.8	4403
520.0	4438
520.2	4472
520.4	4506
520.6	4543
520.8	4575
521.0	4616
521.2	4649
521.4	4682
521.6	4713
521.8	4752
522.0	4790
522.2	4831
522.4	4857
522.6	4879
522.8	4899
523.0	4924
523.2	4953
523.4	4986
523.6	5022
523.8	5060
524.0	5101
524.2	5144
524.4	5180
524.6	5211
524.8	5240
525.0	5270
525.2	5298
525.4	5328
525.6	5375
525.8	5418
526.0	5453
526.2	5483
526.4	5510
526.6	5531
526.8	5567
527.0	5592
527.2	5613
527.4	5634
527.6	5658
527.8	5682
528.0	5710
528.2	5743
528.4	5776
528.6	5804
528.8	5835
529.0	5861
529.2	5886
529.4	5926
529.6	5967
529.8	6004
530.0	6032
530.2	6050
530.4	6061
530.6	6086
530.8	6107
531.0	6133
531.2	6155
531.4	6185
531.6	6204
531.8	6234
532.0	6252
532.2	6269
532.4	6293
532.6	6328
532.8	6342
533.0	6367
533.2	6399
533.4	6419
533.6	6444
533.8	6475
534.0	6484
534.2	6501
534.4	6526
534.6	6539
534.8	6558
535.0	6591
535.2	6609
535.4	6631
535.6	6646
535.8	6661
536.0	6678
536.2	6709
536.4	6727
536.6	6746
536.8	6753
537.0	6764
537.2	6770
537.4	6788
537.6	6800
537.8	6812
538.0	6828
538.2	6851
538.4	6861
538.6	6886
538.8	6895
539.0	6909
539.2	6927
539.4	6946
539.6	6959
539.8	6973
540.0	6980
540.2	6991
540.4	7002
540.6	7011
540.8	7028
541.0	7036
541.2	7042
541.4	7058
541.6	7075
541.8	7075
542.0	7086
542.2	7090
542.4	7092
542.6	7095
542.8	7111
543.0	7106
543.2	7115
543.4	7120
543.6	7139
543.8	7139
544.0	7152
544.2	7158
544.4	7169
544.6	7172
544.8	7187
545.0	7189
545.2	7195
545.4	7203
545.6	7216
545.8	7217
546.0	7215
546.2	7219
546.4	7224
546.6	7226
546.8	7231
547.0	7230
547.2	7219
547.4	7209
547.6	7207
547.8	7205
548.0	7211
548.2	7221
548.4	7218
548.6	7210
548.8	7214
549.0	7219
549.2	7229
549.4	7233
549.6	7226
549.8	7225
550.0	7222
550.2	7214
550.4	7209
550.6	7209
550.8	7206
551.0	7205
551.2	7200
551.4	7199
551.6	7195
551.8	7194
552.0	7194
552.2	7185
552.4	7183
552.6	7192
552.8	7190
553.0	7176
553.2	7171
553.4	7159
553.6	7148
553.8	7151
554.0	7146
554.2	7142
554.4	7143
554.6	7125
554.8	7108
555.0	7098
555.2	7086
555.4	7086
555.6	7089
555.8	7080
556.0	7073
556.2	7067
556.4	7065
556.6	7057
556.8	7045
557.0	7032
557.2	7023
557.4	7018
557.6	7009
557.8	6986
558.0	6973
558.2	6964
558.4	6962
558.6	6958
558.8	6950
559.0	6928
559.2	6913
559.4	6905
559.6	6894
559.8	6880
560.0	6871
560.2	6849
560.4	6831
560.6	6820
560.8	6817
561.0	6807
561.2	6799
561.4	6789
561.6	6773
561.8	6757
562.0	6742
562.2	6719
562.4	6710
562.6	6704
562.8	6695
563.0	6692
563.2	6683
563.4	6678
563.6	6668
563.8	6647
564.0	6626
564.2	6606
564.4	6594
564.6	6594
564.8	6573
565.0	6562
565.2	6540
565.4	6518
565.6	6507
565.8	6496
566.0	6474
566.2	6466
566.4	6454
566.6	6438
566.8	6422
567.0	6403
567.2	6378
567.4	6358
567.6	6343
567.8	6326
568.0	6308
568.2	6294
568.4	6277
568.6	6260
568.8	6250
569.0	6244
569.2	6237
569.4	6229
569.6	6220
569.8	6191
570.0	6168
570.2	6153
570.4	6136
570.6	6127
570.8	6116
571.0	6090
571.2	6073
571.4	6048
571.6	6027
571.8	6006
572.0	5980
572.2	5963
572.4	5957
572.6	5945
572.8	5935
573.0	5921
573.2	5891
573.4	5869
573.6	5853
573.8	5839
574.0	5825
574.2	5812
574.4	5792
574.6	5765
574.8	5737
575.0	5717
575.2	5704
575.4	5692
575.6	5681
575.8	5662
576.0	5632
576.2	5616
576.4	5604
576.6	5593
576.8	5575
577.0	5559
577.2	5533
577.4	5522
577.6	5516
577.8	5496
578.0	5470
578.2	5445
578.4	5425
578.6	5418
578.8	5411
579.0	5395
579.2	5387
579.4	5369
579.6	5352
579.8	5334
580.0	5311
580.2	5286
580.4	5268
580.6	5244
580.8	5226
581.0	5209
581.2	5192
581.4	5170
581.6	5150
581.8	5137
582.0	5123
582.2	5110
582.4	5088
582.6	5060
582.8	5036
583.0	5026
583.2	5014
583.4	5010
583.6	4988
583.8	4956
584.0	4929
584.2	4913
584.4	4895
584.6	4887
584.8	4868
585.0	4844
585.2	4836
585.4	4826
585.6	4812
585.8	4798
586.0	4776
586.2	4747
586.4	4731
586.6	4707
586.8	4687
587.0	4673
587.2	4659
587.4	4645
587.6	4637
587.8	4610
588.0	4585
588.2	4569
588.4	4548
588.6	4533
588.8	4523
589.0	4497
589.2	4475
589.4	4458
589.6	4442
589.8	4430
590.0	4418
590.2	4398
590.4	4375
590.6	4351
590.8	4330
591.0	4317
591.2	4298
591.4	4277
591.6	4268
591.8	4257
592.0	4242
592.2	4236
592.4	4217
592.6	4197
592.8	4182
593.0	4164
593.2	4143
593.4	4129
593.6	4103
593.8	4083
594.0	4060
594.2	4040
594.4	4028
594.6	4017
594.8	4001
595.0	3989
595.2	3969
595.4	3951
595.6	3937
595.8	3922
596.0	3907
596.2	3893
596.4	3878
596.6	3869
596.8	3855
597.0	3840
597.2	3817
597.4	3792
597.6	3774
597.8	3762
598.0	3750
598.2	3737
598.4	3716
598.6	3696
598.8	3677
599.0	3661
599.2	3656
599.4	3646
599.6	3634
599.8	3618
600.0	3597
600.2	3576
600.4	3558
600.6	3541
600.8	3526
601.0	3504
601.2	3488
601.4	3474
601.6	3455
601.8	3441
602.0	3431
602.2	3419
602.4	3404
602.6	3388
602.8	3369
603.0	3347
603.2	3333
603.4	3327
603.6	3312
603.8	3298
604.0	3284
604.2	3261
604.4	3244
604.6	3233
604.8	3220
605.0	3207
605.2	3196
605.4	3179
605.6	3164
605.8	3151
606.0	3134
606.2	3116
606.4	3098
606.6	3083
606.8	3065
607.0	3056
607.2	3037
607.4	3021
607.6	3012
607.8	3004
608.0	2997
608.2	2985
608.4	2963
608.6	2942
608.8	2927
609.0	2910
609.2	2899
609.4	2882
609.6	2870
609.8	2856
610.0	2838
610.2	2819
610.4	2805
610.6	2791
610.8	2784
611.0	2777
611.2	2768
611.4	2755
611.6	2742
611.8	2723
612.0	2705
612.2	2690
612.4	2675
612.6	2660
612.8	2644
613.0	2630
613.2	2616
613.4	2604
613.6	2594
613.8	2585
614.0	2572
614.2	2561
614.4	2550
614.6	2532
614.8	2518
615.0	2502
615.2	2486
615.4	2473
615.6	2465
615.8	2450
616.0	2438
616.2	2428
616.4	2414
616.6	2397
616.8	2383
617.0	2370
617.2	2358
617.4	2349
617.6	2334
617.8	2322
618.0	2312
618.2	2302
618.4	2291
618.6	2276
618.8	2263
619.0	2252
619.2	2245
619.4	2235
619.6	2217
619.8	2202
620.0	2193
620.2	2179
620.4	2163
620.6	2155
620.8	2138
621.0	2130
621.2	2121
621.4	2108
621.6	2091
621.8	2083
622.0	2075
622.2	2064
622.4	2052
622.6	2043
622.8	2029
623.0	2015
623.2	2006
623.4	1994
623.6	1985
623.8	1977
624.0	1966
624.2	1953
624.4	1939
624.6	1925
624.8	1914
625.0	1902
625.2	1895
625.4	1886
625.6	1870
625.8	1859
626.0	1849
626.2	1839
626.4	1831
626.6	1823
626.8	1816
627.0	1812
627.2	1799
627.4	1786
627.6	1764
627.8	1747
628.0	1743
628.2	1737
628.4	1727
628.6	1717
628.8	1702
629.0	1692
629.2	1683
629.4	1674
629.6	1664
629.8	1654
630.0	1648
630.2	1639
630.4	1628
630.6	1618
630.8	1611
631.0	1604
631.2	1599
631.4	1587
631.6	1572
631.8	1557
632.0	1544
632.2	1533
632.4	1523
632.6	1518
632.8	1509
633.0	1506
633.2	1498
633.4	1485
633.6	1475
633.8	1467
634.0	1463
634.2	1459
634.4	1449
634.6	1439
634.8	1427
635.0	1418
635.2	1411
635.4	1402
635.6	1393
635.8	1387
636.0	1377
636.2	1369
636.4	1365
636.6	1355
636.8	1345
637.0	1336
637.2	1326
637.4	1320
637.6	1317
637.8	1307
638.0	1298
638.2	1292
638.4	1283
638.6	1279
638.8	1270
639.0	1258
639.2	1246
639.4	1238
639.6	1233
639.8	1229
640.0	1219
640.2	1210
640.4	1206
640.6	1199
640.8	1193
641.0	1185
641.2	1174
641.4	1170
641.6	1165
641.8	1158
642.0	1151
642.2	1145
642.4	1136
642.6	1127
642.8	1118
643.0	1111
643.2	1104
643.4	1100
643.6	1092
643.8	1083
644.0	1076
644.2	1068
644.4	1060
644.6	1055
644.8	1053
645.0	1047
645.2	1042
645.4	1034
645.6	1024
645.8	1017
646.0	1015
646.2	1010
646.4	1006
646.6	999.1
646.8	992.0
647.0	983.3
647.2	978.4
647.4	974.0
647.6	969.3
647.8	965.4
648.0	959.0
648.2	950.4
648.4	941.0
648.6	933.7
648.8	929.0
649.0	927.2
649.2	922.5
649.4	913.8
649.6	902.7
649.8	890.5
650.0	884.9
650.2	883.4
650.4	883.3
650.6	880.3
650.8	874.3
651.0	864.6
651.2	859.2
651.4	851.6
651.6	845.7
651.8	840.8
652.0	836.5
652.2	831.3
652.4	828.1
652.6	822.2
652.8	812.2
653.0	805.5
653.2	803.5
653.4	797.7
653.6	794.7
653.8	792.6
654.0	785.6
654.2	780.8
654.4	778.0
654.6	772.2
654.8	766.2
655.0	762.0
655.2	756.6
655.4	751.8
655.6	749.0
655.8	742.3
656.0	737.7
656.2	733.1
656.4	729.6
656.6	722.9
656.8	716.7
657.0	707.9
657.2	703.3
657.4	701.1
657.6	699.9
657.8	695.9
658.0	692.0
658.2	687.7
658.4	682.4
658.6	676.8
658.8	671.3
659.0	666.3
659.2	662.2
659.4	660.6
659.6	657.3
659.8	654.2
660.0	650.2
660.2	645.2
660.4	638.7
660.6	633.5
660.8	627.6
661.0	623.8
661.2	619.7
661.4	616.1
661.6	613.0
661.8	609.0
662.0	605.2
662.2	600.8
662.4	595.2
662.6	591.5
662.8	590.2
663.0	583.4
663.2	580.0
663.4	576.2
663.6	568.9
663.8	566.3
664.0	567.2
664.2	562.0
664.4	558.5
664.6	555.9
664.8	547.4
665.0	542.6
665.2	540.7
665.4	534.8
665.6	530.1
665.8	527.1
666.0	522.1
666.2	518.9
666.4	516.6
666.6	512.8
666.8	509.1
667.0	505.6
667.2	501.9
667.4	500.5
667.6	501.1
667.8	497.3
668.0	492.9
668.2	487.8
668.4	483.8
668.6	482.4
668.8	481.4
669.0	476.8
669.2	473.3
669.4	469.7
669.6	467.0
669.8	466.7
670.0	463.8
670.2	462.1
670.4	460.5
670.6	456.4
670.8	451.6
671.0	447.7
671.2	442.0
671.4	438.7
671.6	436.6
671.8	433.6
672.0	430.4
672.2	426.6
672.4	424.0
672.6	421.7
672.8	420.7
673.0	417.3
673.2	414.6
673.4	412.3
673.6	410.9
673.8	408.4
674.0	405.4
674.2	400.3
674.4	396.8
674.6	394.7
674.8	392.4
675.0	388.6
675.2	385.5
675.4	382.0
675.6	380.8
675.8	380.7
676.0	378.3
676.2	373.4
676.4	368.7
676.6	365.8
676.8	364.5
677.0	363.6
677.2	361.4
677.4	355.9
677.6	350.8
677.8	349.0
678.0	347.2
678.2	349.5
678.4	348.1
678.6	343.1
678.8	338.1
679.0	334.6
679.2	332.5
679.4	336.1
679.6	334.5
679.8	331.4
680.0	328.1
680.2	323.8
680.4	321.0
680.6	321.0
680.8	319.1
681.0	315.9
681.2	312.0
681.4	309.0
681.6	307.7
681.8	307.2
682.0	305.7
682.2	302.6
682.4	299.0
682.6	296.5
682.8	294.8
683.0	293.1
683.2	292.5
683.4	291.4
683.6	288.6
683.8	285.0
684.0	283.0
684.2	280.4
684.4	278.5
684.6	277.3
684.8	275.4
685.0	274.8
685.2	274.2
685.4	274.0
685.6	271.4
685.8	268.8
686.0	265.8
686.2	262.9
686.4	259.5
686.6	258.2
686.8	256.5
687.0	255.9
687.2	256.2
687.4	254.6
687.6	252.1
687.8	250.3
688.0	248.9
688.2	247.2
688.4	246.2
688.6	243.6
688.8	239.7
689.0	237.7
689.2	237.1
689.4	234.9
689.6	233.8
689.8	233.7
690.0	233.1
690.2	232.3
690.4	232.0
690.6	229.9
690.8	225.6
691.0	223.1
691.2	220.3
691.4	218.4
691.6	218.9
691.8	218.9
692.0	216.8
692.2	214.5
692.4	212.5
692.6	210.9
692.8	208.9
693.0	206.9
693.2	205.1
693.4	203.6
693.6	204.3
693.8	205.7
694.0	204.3
694.2	201.8
694.4	199.3
694.6	197.6
694.8	196.8
695.0	196.8
695.2	195.2
695.4	194.0
695.6	192.8
695.8	192.2
696.0	192.2
696.2	189.7
696.4	188.5
696.6	186.4
696.8	184.8
697.0	183.4
697.2	182.5
697.4	181.6
697.6	182.0
697.8	180.2
698.0	178.5
698.2	176.2
698.4	174.0
698.6	173.5
698.8	173.7
699.0	174.2
699.2	172.9
699.4	171.3
699.6	169.7
699.8	168.4
700.0	168.1
700.2	167.2
700.4	165.0
700.6	164.3
700.8	164.3
701.0	163.0
701.2	161.6
701.4	160.2
701.6	158.9
701.8	158.7
702.0	158.3
702.2	156.9
702.4	155.7
702.6	154.9
702.8	152.6
703.0	151.4
703.2	150.4
703.4	150.9
703.6	151.0
703.8	150.1
704.0	148.3
704.2	146.9
704.4	146.0
704.6	146.2
704.8	147.0
705.0	146.4
705.2	144.8
705.4	142.8
705.6	141.5
705.8	139.5
706.0	139.8
706.2	139.5
706.4	138.2
706.6	136.3
706.8	135.4
707.0	133.8
707.2	133.2
707.4	132.4
707.6	132.0
707.8	131.5
708.0	131.4
708.2	130.9
708.4	129.2
708.6	127.3
708.8	126.5
709.0	126.5
709.2	126.7
709.4	126.8
709.6	125.3
709.8	124.2
710.0	123.8
710.2	123.5
710.4	123.6
710.6	123.1
710.8	120.6
711.0	118.7
711.2	117.4
711.4	116.1
711.6	115.7
711.8	115.0
712.0	115.0
712.2	115.1
712.4	115.1
712.6	114.4
712.8	113.8
713.0	111.3
713.2	111.7
713.4	111.6
713.6	111.0
713.8	109.5
714.0	107.8
714.2	106.8
714.4	107.1
714.6	107.5
714.8	106.7
715.0	106.1
715.2	104.3
715.4	104.7
715.6	104.0
715.8	103.5
716.0	102.2
716.2	101.6
716.4	99.52
716.6	99.74
716.8	98.23
717.0	97.98
717.2	96.72
717.4	95.53
717.6	93.51
717.8	94.62
718.0	93.95
718.2	94.09
718.4	94.17
718.6	93.76
718.8	92.03
719.0	91.09
719.2	89.35
719.4	88.39
719.6	89.18
719.8	89.56
720.0	88.50
720.2	87.89
720.4	87.80
720.6	87.89
720.8	87.32
721.0	85.69
721.2	83.81
721.4	83.45
721.6	84.48
721.8	85.11
722.0	83.43
722.2	81.66
722.4	80.82
722.6	79.22
722.8	79.20
723.0	79.21
723.2	78.79
723.4	78.76
723.6	77.95
723.8	76.39
724.0	76.28
724.2	75.92
724.4	76.24
724.6	76.41
724.8	74.68
725.0	73.13
725.2	73.10
725.4	71.51
725.6	71.24
725.8	71.64
726.0	71.10
726.2	70.75
726.4	70.68
726.6	69.55
726.8	69.45
727.0	68.76
727.2	68.22
727.4	68.02
727.6	67.32
727.8	66.82
728.0	66.42
728.2	64.74
728.4	63.98
728.6	63.48
728.8	62.98
729.0	63.15
729.2	63.51
729.4	62.82
729.6	62.22
729.8	61.40
730.0	60.84
730.2	60.92
730.4	61.29
730.6	60.49
730.8	59.49
731.0	58.29
731.2	58.00
731.4	57.43
731.6	57.69
731.8	58.16
732.0	57.37
732.2	56.91
732.4	56.02
732.6	55.42
732.8	55.17
733.0	55.05
733.2	54.45
733.4	55.08
733.6	54.80
733.8	54.54
734.0	53.73
734.2	52.68
734.4	51.80
734.6	50.96
734.8	50.81
735.0	50.18
735.2	50.65
735.4	51.19
735.6	50.96
735.8	49.68
736.0	48.85
736.2	48.15
736.4	48.49
736.6	48.20
736.8	48.07
737.0	47.43
737.2	47.00
737.4	46.92
737.6	46.77
737.8	46.10
738.0	45.28
738.2	44.71
738.4	45.00
738.6	44.81
738.8	43.81
739.0	43.05
739.2	42.43
739.4	42.46
739.6	43.14
739.8	42.78
740.0	42.16
740.2	41.45
740.4	41.69
740.6	41.21
740.8	41.79
741.0	41.66
741.2	40.94
741.4	39.94
741.6	39.84
741.8	39.40
742.0	40.15
742.2	40.09
742.4	39.22
742.6	38.81
742.8	39.12
743.0	39.09
743.2	38.81
743.4	38.34
743.6	37.42
743.8	36.85
744.0	37.11
744.2	37.26
744.4	36.66
744.6	36.75
744.8	36.06
745.0	35.51
745.2	34.74
745.4	34.91
745.6	34.58
745.8	34.55
746.0	34.05
746.2	34.01
746.4	33.46
746.6	33.14
746.8	33.28
747.0	33.29
747.2	32.52
747.4	32.60
747.6	32.57
747.8	32.04
748.0	32.33
748.2	32.15
748.4	31.58
748.6	30.97
748.8	30.89
749.0	30.25
749.2	30.34
749.4	30.21
749.6	30.83
749.8	30.38
750.0	31.14
750.2	30.57
750.4	30.56
750.6	29.53
750.8	28.83
751.0	27.66
751.2	27.88
751.4	27.91
751.6	28.30
751.8	27.86
752.0	28.02
752.2	27.86
752.4	28.29
752.6	28.00
752.8	27.47
753.0	27.40
753.2	27.28
753.4	27.42
753.6	27.22
753.8	26.36
754.0	26.01
754.2	26.28
754.4	26.40
754.6	26.54
754.8	25.89
755.0	24.77
755.2	23.81
755.4	23.87
755.6	24.83
755.8	25.65
756.0	26.20
756.2	25.69
756.4	24.34
756.6	24.01
756.8	24.08
757.0	24.02
757.2	23.54
757.4	23.22
757.6	22.77
757.8	22.98
758.0	23.16
758.2	23.00
758.4	22.30
758.6	21.80
758.8	22.07
759.0	22.30
759.2	22.28
759.4	22.00
759.6	21.60
759.8	21.19
760.0	21.62
760.2	21.41
760.4	21.29
760.6	20.56
760.8	20.22
761.0	20.08
761.2	20.01
761.4	19.79
761.6	20.16
761.8	20.03
762.0	19.87
762.2	20.04
762.4	19.99
762.6	20.35
762.8	20.28
763.0	20.17
763.2	19.66
763.4	20.06
763.6	20.11
763.8	20.19
764.0	19.65
764.2	19.28
764.4	18.68
764.6	18.91
764.8	18.89
765.0	18.63
765.2	18.72
765.4	18.68
765.6	18.38
765.8	18.12
766.0	18.20
766.2	17.90
766.4	18.21
766.6	17.92
766.8	17.97
767.0	18.00
767.2	18.21
767.4	17.88
767.6	17.87
767.8	17.22
768.0	16.86
768.2	16.97
768.4	16.38
768.6	15.81
768.8	15.66
769.0	15.59
769.2	15.47
769.4	16.04
769.6	15.65
769.8	15.94
770.0	16.29
770.2	16.40
770.4	16.42
770.6	16.12
770.8	15.35
771.0	15.12
771.2	15.32
771.4	14.91
771.6	14.97
771.8	14.70
772.0	14.29
772.2	14.14
772.4	14.30
772.6	14.04
772.8	14.09
773.0	14.13
773.2	14.00
773.4	13.81
773.6	13.72
773.8	13.74
774.0	13.77
774.2	13.92
774.4	13.91
774.6	13.71
774.8	13.19
775.0	12.99
775.2	13.24
775.4	13.79
775.6	13.85
775.8	13.67
776.0	13.07
776.2	12.56
776.4	12.56
776.6	13.21
776.8	13.17
777.0	12.87
777.2	12.80
777.4	12.27
777.6	11.74
777.8	11.93
778.0	12.20
778.2	12.66
778.4	13.12
778.6	12.91
778.8	12.60
779.0	12.28
779.2	11.96
779.4	12.04
779.6	11.83
779.8	11.35
780.0	11.54
780.2	11.32
780.4	11.21
780.6	11.06
780.8	11.00
781.0	11.41
781.2	12.05
781.4	12.10
781.6	12.08
781.8	11.66
782.0	11.43
782.2	11.29
782.4	11.17
782.6	10.75
782.8	10.75
783.0	10.94
783.2	11.07
783.4	10.73
783.6	10.61
783.8	10.60
784.0	10.85
784.2	11.09
784.4	11.16
784.6	11.25
784.8	10.76
785.0	10.55
785.2	10.23
785.4	10.06
785.6	10.15
785.8	10.58
786.0	10.38
786.2	10.92
786.4	11.39
786.6	11.51
786.8	11.40
787.0	11.00
787.2	10.51
787.4	10.57
787.6	10.54
787.8	10.32
788.0	10.16
788.2	10.04
788.4	10.02
788.6	10.60
788.8	11.03
789.0	11.55
789.2	11.55
789.4	11.27
789.6	10.87
789.8	10.69
790.0	10.87
790.2	11.23
790.4	11.43
790.6	11.66
790.8	11.76
791.0	11.50
791.2	11.53
791.4	11.30
791.6	11.30
791.8	11.03
792.0	10.88
792.2	10.74
792.4	11.11
792.6	11.13
792.8	11.12
793.0	11.10
793.2	11.51
793.4	11.79
793.6	12.17
793.8	11.76
794.0	11.26
794.2	11.35
794.4	11.53
794.6	11.81
794.8	11.77
795.0	11.25
795.2	11.10
795.4	11.22
795.6	11.28
795.8	11.72
796.0	11.77
796.2	11.79
796.4	11.70
796.6	11.62
796.8	11.66
797.0	11.38
797.2	11.09
797.4	11.41
797.6	11.54
797.8	12.00
798.0	12.30
798.2	12.11
798.4	11.90
798.6	12.13
798.8	12.10
799.0	11.93
799.2	11.80
799.4	11.90
799.6	12.19
799.8	12.47
800.0	12.60

