Sample:	'20211010A(EM)
File name:	G-NI 3 300.FDS
Run date:	'17:17:00, 06/19/2023
Operator:	Administrator
Comment:	'

Instrument
Model:	F-4700 FL Spectrophotometer
Serial number:	2019-001
ROM Version:	5J24010 00

Instrument parameters
Measurement type:	Wavelength scan
Scan mode:	Emission
Data mode:	Fluorescence
EX WL:	400.0 nm
EM  Start WL:	420.0 nm
EM  End WL:	800.0 nm
Scan speed:	1200 nm/min
Delay:	0.0 s
EX Slit:	10.0 nm
EM Slit:	10.0 nm
PMT Voltage:	500 V
Response:	0.002 s
Corrected spectra:	Off
Shutter control:	On

Processing performed
Savitsky-Golay smoothed
Smoothing order:	3
Number of points:	7
Number of times:	1

Peak integration
Integration method:	Rectangular
Sensitivity:	1
Threshold:	1.000

Peaks
No.	Start(nm)	Apex(nm)	End(nm)	Height(Data)	Valley(nm)	Valley(Data)
1	420.0	544.4	545.0	3164	545.0	3158
2	545.0	546.0	546.4	3195	546.4	3186
3	546.4	548.6	549.2	3200	549.2	3183
4	549.2	549.8	551.6	3205	551.6	3172
5	551.6	552.4	733.0	3192	733.0	24.35
6	733.0	733.8	745.2	25.62	745.2	14.92
7	745.2	746.0	786.4	16.38	786.4	4.878
8	786.4	795.2	800.0	8.348	800.0	7.916

Data points
nm	Data
420.0	1.243
420.2	1.554
420.4	1.776
420.6	1.899
420.8	1.911
421.0	1.692
421.2	1.665
421.4	1.628
421.6	1.504
421.8	1.526
422.0	1.521
422.2	1.468
422.4	1.524
422.6	1.441
422.8	1.281
423.0	1.291
423.2	1.276
423.4	1.409
423.6	1.398
423.8	1.497
424.0	1.495
424.2	1.378
424.4	1.266
424.6	1.281
424.8	1.281
425.0	1.469
425.2	1.286
425.4	1.250
425.6	1.317
425.8	1.258
426.0	1.243
426.2	1.370
426.4	1.179
426.6	1.239
426.8	1.546
427.0	1.471
427.2	1.500
427.4	1.677
427.6	1.626
427.8	1.544
428.0	1.648
428.2	1.538
428.4	1.553
428.6	1.595
428.8	1.640
429.0	1.498
429.2	1.540
429.4	1.549
429.6	1.518
429.8	1.602
430.0	1.611
430.2	1.538
430.4	1.668
430.6	1.645
430.8	1.668
431.0	1.699
431.2	1.681
431.4	1.570
431.6	1.568
431.8	1.340
432.0	1.386
432.2	1.347
432.4	1.460
432.6	1.539
432.8	1.631
433.0	1.651
433.2	1.799
433.4	1.852
433.6	1.738
433.8	1.685
434.0	1.471
434.2	1.471
434.4	1.534
434.6	1.508
434.8	1.380
435.0	1.483
435.2	1.498
435.4	1.661
435.6	1.814
435.8	1.855
436.0	1.854
436.2	1.833
436.4	1.725
436.6	1.696
436.8	1.718
437.0	1.713
437.2	1.735
437.4	1.633
437.6	1.557
437.8	1.601
438.0	1.671
438.2	1.560
438.4	1.713
438.6	1.795
438.8	1.838
439.0	1.910
439.2	1.889
439.4	1.778
439.6	1.854
439.8	1.989
440.0	1.906
440.2	1.861
440.4	1.822
440.6	1.739
440.8	1.701
441.0	1.749
441.2	1.707
441.4	1.732
441.6	1.943
441.8	1.993
442.0	2.047
442.2	2.123
442.4	2.007
442.6	1.828
442.8	1.864
443.0	1.810
443.2	1.877
443.4	2.052
443.6	1.993
443.8	1.998
444.0	2.108
444.2	2.032
444.4	2.069
444.6	2.246
444.8	2.253
445.0	2.198
445.2	2.128
445.4	1.772
445.6	1.716
445.8	1.719
446.0	1.881
446.2	1.958
446.4	2.125
446.6	2.143
446.8	2.505
447.0	2.537
447.2	2.554
447.4	2.396
447.6	2.193
447.8	2.152
448.0	2.391
448.2	2.433
448.4	2.464
448.6	2.405
448.8	2.128
449.0	2.074
449.2	2.120
449.4	2.105
449.6	2.282
449.8	2.393
450.0	2.218
450.2	2.174
450.4	2.208
450.6	2.362
450.8	2.555
451.0	2.730
451.2	2.501
451.4	2.384
451.6	2.412
451.8	2.616
452.0	2.724
452.2	2.928
452.4	2.775
452.6	2.843
452.8	2.877
453.0	2.840
453.2	2.851
453.4	2.910
453.6	2.798
453.8	2.898
454.0	2.893
454.2	2.801
454.4	2.858
454.6	2.726
454.8	2.896
455.0	3.179
455.2	3.488
455.4	3.536
455.6	3.567
455.8	3.158
456.0	3.193
456.2	3.111
456.4	3.297
456.6	3.413
456.8	3.651
457.0	3.541
457.2	3.679
457.4	3.723
457.6	3.795
457.8	3.514
458.0	3.439
458.2	3.289
458.4	3.346
458.6	3.621
458.8	3.651
459.0	3.672
459.2	4.055
459.4	4.353
459.6	4.604
459.8	4.756
460.0	4.568
460.2	4.538
460.4	4.731
460.6	4.730
460.8	4.672
461.0	4.701
461.2	4.846
461.4	4.913
461.6	5.041
461.8	4.939
462.0	5.032
462.2	5.138
462.4	5.195
462.6	4.831
462.8	4.869
463.0	4.865
463.2	5.352
463.4	5.834
463.6	6.059
463.8	5.972
464.0	6.107
464.2	5.882
464.4	6.098
464.6	6.318
464.8	6.671
465.0	6.944
465.2	6.746
465.4	6.748
465.6	7.189
465.8	7.393
466.0	7.919
466.2	7.988
466.4	7.880
466.6	7.983
466.8	7.968
467.0	8.117
467.2	8.518
467.4	8.805
467.6	9.245
467.8	9.380
468.0	9.082
468.2	9.187
468.4	9.691
468.6	10.22
468.8	10.46
469.0	10.52
469.2	10.49
469.4	10.64
469.6	11.14
469.8	11.64
470.0	11.85
470.2	12.12
470.4	12.50
470.6	12.87
470.8	13.33
471.0	14.03
471.2	14.08
471.4	14.12
471.6	14.59
471.8	14.86
472.0	16.06
472.2	16.88
472.4	16.84
472.6	16.97
472.8	17.29
473.0	17.57
473.2	18.73
473.4	18.87
473.6	18.99
473.8	19.50
474.0	20.10
474.2	20.96
474.4	21.72
474.6	21.99
474.8	22.56
475.0	23.59
475.2	24.32
475.4	24.77
475.6	25.48
475.8	26.05
476.0	26.94
476.2	28.32
476.4	29.19
476.6	29.92
476.8	30.62
477.0	31.05
477.2	31.66
477.4	32.42
477.6	32.87
477.8	33.96
478.0	35.31
478.2	37.11
478.4	38.31
478.6	39.11
478.8	39.66
479.0	40.63
479.2	42.90
479.4	44.70
479.6	45.36
479.8	46.46
480.0	47.16
480.2	48.31
480.4	51.04
480.6	52.60
480.8	53.68
481.0	55.78
481.2	56.58
481.4	58.03
481.6	59.79
481.8	61.64
482.0	63.41
482.2	65.05
482.4	65.97
482.6	67.58
482.8	69.51
483.0	71.53
483.2	74.19
483.4	76.15
483.6	77.60
483.8	80.13
484.0	82.80
484.2	85.53
484.4	88.11
484.6	89.99
484.8	91.36
485.0	93.95
485.2	96.52
485.4	99.46
485.6	101.7
485.8	105.0
486.0	108.1
486.2	111.7
486.4	115.9
486.6	118.7
486.8	120.4
487.0	123.6
487.2	125.8
487.4	129.8
487.6	134.8
487.8	138.6
488.0	141.7
488.2	144.7
488.4	147.3
488.6	151.6
488.8	155.6
489.0	159.0
489.2	163.2
489.4	167.1
489.6	170.8
489.8	176.1
490.0	180.5
490.2	183.8
490.4	188.1
490.6	193.3
490.8	199.6
491.0	206.1
491.2	210.2
491.4	214.7
491.6	219.4
491.8	225.3
492.0	231.9
492.2	234.8
492.4	239.0
492.6	245.0
492.8	252.6
493.0	260.1
493.2	266.2
493.4	268.0
493.6	273.9
493.8	280.8
494.0	289.7
494.2	296.8
494.4	303.9
494.6	308.7
494.8	312.5
495.0	317.9
495.2	325.8
495.4	334.4
495.6	344.9
495.8	353.2
496.0	357.6
496.2	364.6
496.4	371.5
496.6	378.1
496.8	385.8
497.0	393.7
497.2	401.9
497.4	411.3
497.6	419.1
497.8	426.6
498.0	436.2
498.2	443.5
498.4	454.0
498.6	460.1
498.8	465.7
499.0	471.8
499.2	482.8
499.4	494.0
499.6	509.3
499.8	520.1
500.0	529.3
500.2	538.6
500.4	548.7
500.6	559.1
500.8	568.1
501.0	576.1
501.2	586.4
501.4	598.7
501.6	610.5
501.8	621.8
502.0	629.9
502.2	638.3
502.4	646.8
502.6	659.4
502.8	674.3
503.0	689.9
503.2	702.6
503.4	713.1
503.6	724.3
503.8	736.7
504.0	747.3
504.2	758.2
504.4	773.2
504.6	787.8
504.8	802.4
505.0	813.1
505.2	824.1
505.4	831.0
505.6	844.9
505.8	860.2
506.0	871.0
506.2	882.5
506.4	898.3
506.6	909.3
506.8	923.4
507.0	937.2
507.2	947.9
507.4	961.8
507.6	977.7
507.8	993.8
508.0	1010
508.2	1025
508.4	1038
508.6	1047
508.8	1061
509.0	1074
509.2	1090
509.4	1110
509.6	1127
509.8	1141
510.0	1159
510.2	1174
510.4	1184
510.6	1196
510.8	1209
511.0	1227
511.2	1246
511.4	1260
511.6	1271
511.8	1282
512.0	1296
512.2	1314
512.4	1332
512.6	1349
512.8	1368
513.0	1381
513.2	1395
513.4	1413
513.6	1431
513.8	1450
514.0	1465
514.2	1472
514.4	1480
514.6	1493
514.8	1514
515.0	1533
515.2	1552
515.4	1568
515.6	1583
515.8	1603
516.0	1622
516.2	1637
516.4	1651
516.6	1668
516.8	1683
517.0	1703
517.2	1714
517.4	1729
517.6	1741
517.8	1757
518.0	1770
518.2	1784
518.4	1799
518.6	1821
518.8	1839
519.0	1859
519.2	1877
519.4	1892
519.6	1905
519.8	1923
520.0	1935
520.2	1951
520.4	1969
520.6	1987
520.8	2002
521.0	2022
521.2	2034
521.4	2050
521.6	2065
521.8	2078
522.0	2089
522.2	2105
522.4	2114
522.6	2136
522.8	2154
523.0	2168
523.2	2180
523.4	2190
523.6	2201
523.8	2224
524.0	2243
524.2	2256
524.4	2271
524.6	2285
524.8	2294
525.0	2310
525.2	2326
525.4	2338
525.6	2354
525.8	2369
526.0	2378
526.2	2392
526.4	2408
526.6	2423
526.8	2439
527.0	2458
527.2	2469
527.4	2480
527.6	2492
527.8	2500
528.0	2516
528.2	2532
528.4	2539
528.6	2547
528.8	2561
529.0	2570
529.2	2588
529.4	2600
529.6	2614
529.8	2625
530.0	2637
530.2	2652
530.4	2666
530.6	2678
530.8	2688
531.0	2696
531.2	2706
531.4	2720
531.6	2733
531.8	2743
532.0	2742
532.2	2749
532.4	2764
532.6	2777
532.8	2792
533.0	2803
533.2	2808
533.4	2819
533.6	2834
533.8	2847
534.0	2855
534.2	2862
534.4	2866
534.6	2869
534.8	2875
535.0	2890
535.2	2907
535.4	2918
535.6	2929
535.8	2934
536.0	2933
536.2	2947
536.4	2956
536.6	2957
536.8	2960
537.0	2965
537.2	2975
537.4	2997
537.6	3008
537.8	3015
538.0	3017
538.2	3013
538.4	3022
538.6	3033
538.8	3044
539.0	3049
539.2	3056
539.4	3054
539.6	3054
539.8	3065
540.0	3071
540.2	3075
540.4	3087
540.6	3097
540.8	3095
541.0	3103
541.2	3104
541.4	3105
541.6	3114
541.8	3126
542.0	3129
542.2	3130
542.4	3131
542.6	3124
542.8	3125
543.0	3130
543.2	3143
543.4	3151
543.6	3161
543.8	3161
544.0	3160
544.2	3163
544.4	3164
544.6	3161
544.8	3160
545.0	3158
545.2	3160
545.4	3176
545.6	3183
545.8	3190
546.0	3195
546.2	3191
546.4	3186
546.6	3190
546.8	3187
547.0	3186
547.2	3187
547.4	3191
547.6	3190
547.8	3196
548.0	3195
548.2	3196
548.4	3197
548.6	3200
548.8	3193
549.0	3191
549.2	3183
549.4	3186
549.6	3200
549.8	3205
550.0	3203
550.2	3202
550.4	3193
550.6	3190
550.8	3192
551.0	3190
551.2	3187
551.4	3179
551.6	3172
551.8	3174
552.0	3177
552.2	3188
552.4	3192
552.6	3184
552.8	3173
553.0	3168
553.2	3173
553.4	3176
553.6	3179
553.8	3168
554.0	3159
554.2	3157
554.4	3160
554.6	3157
554.8	3160
555.0	3149
555.2	3146
555.4	3150
555.6	3150
555.8	3144
556.0	3136
556.2	3124
556.4	3121
556.6	3121
556.8	3117
557.0	3121
557.2	3122
557.4	3124
557.6	3120
557.8	3114
558.0	3098
558.2	3092
558.4	3088
558.6	3080
558.8	3070
559.0	3073
559.2	3064
559.4	3059
559.6	3054
559.8	3050
560.0	3042
560.2	3041
560.4	3033
560.6	3025
560.8	3026
561.0	3031
561.2	3029
561.4	3021
561.6	3006
561.8	2995
562.0	2992
562.2	2991
562.4	2988
562.6	2986
562.8	2979
563.0	2978
563.2	2968
563.4	2963
563.6	2958
563.8	2954
564.0	2943
564.2	2939
564.4	2931
564.6	2922
564.8	2921
565.0	2915
565.2	2910
565.4	2910
565.6	2904
565.8	2887
566.0	2877
566.2	2870
566.4	2869
566.6	2868
566.8	2859
567.0	2849
567.2	2833
567.4	2821
567.6	2815
567.8	2811
568.0	2814
568.2	2813
568.4	2802
568.6	2794
568.8	2781
569.0	2774
569.2	2772
569.4	2769
569.6	2766
569.8	2762
570.0	2753
570.2	2743
570.4	2730
570.6	2718
570.8	2710
571.0	2705
571.2	2702
571.4	2692
571.6	2687
571.8	2678
572.0	2673
572.2	2666
572.4	2660
572.6	2646
572.8	2641
573.0	2631
573.2	2627
573.4	2620
573.6	2613
573.8	2601
574.0	2594
574.2	2586
574.4	2582
574.6	2574
574.8	2561
575.0	2556
575.2	2554
575.4	2550
575.6	2543
575.8	2538
576.0	2523
576.2	2512
576.4	2500
576.6	2494
576.8	2488
577.0	2482
577.2	2473
577.4	2462
577.6	2459
577.8	2458
578.0	2451
578.2	2435
578.4	2420
578.6	2404
578.8	2401
579.0	2400
579.2	2396
579.4	2390
579.6	2380
579.8	2371
580.0	2364
580.2	2362
580.4	2361
580.6	2350
580.8	2335
581.0	2323
581.2	2311
581.4	2308
581.6	2306
581.8	2299
582.0	2291
582.2	2282
582.4	2275
582.6	2273
582.8	2264
583.0	2256
583.2	2247
583.4	2234
583.6	2226
583.8	2215
584.0	2210
584.2	2207
584.4	2204
584.6	2186
584.8	2178
585.0	2169
585.2	2163
585.4	2156
585.6	2150
585.8	2132
586.0	2123
586.2	2117
586.4	2110
586.6	2103
586.8	2099
587.0	2088
587.2	2082
587.4	2074
587.6	2067
587.8	2067
588.0	2066
588.2	2055
588.4	2043
588.6	2031
588.8	2014
589.0	2013
589.2	2014
589.4	2003
589.6	1987
589.8	1977
590.0	1963
590.2	1963
590.4	1966
590.6	1960
590.8	1946
591.0	1936
591.2	1925
591.4	1920
591.6	1911
591.8	1906
592.0	1894
592.2	1889
592.4	1883
592.6	1879
592.8	1871
593.0	1865
593.2	1855
593.4	1846
593.6	1837
593.8	1834
594.0	1826
594.2	1819
594.4	1810
594.6	1797
594.8	1787
595.0	1785
595.2	1775
595.4	1769
595.6	1760
595.8	1750
596.0	1747
596.2	1750
596.4	1746
596.6	1738
596.8	1724
597.0	1711
597.2	1705
597.4	1700
597.6	1692
597.8	1686
598.0	1679
598.2	1675
598.4	1669
598.6	1663
598.8	1656
599.0	1648
599.2	1640
599.4	1631
599.6	1617
599.8	1613
600.0	1603
600.2	1595
600.4	1586
600.6	1576
600.8	1571
601.0	1571
601.2	1567
601.4	1563
601.6	1552
601.8	1539
602.0	1533
602.2	1528
602.4	1528
602.6	1526
602.8	1515
603.0	1505
603.2	1499
603.4	1490
603.6	1484
603.8	1480
604.0	1474
604.2	1466
604.4	1460
604.6	1451
604.8	1441
605.0	1435
605.2	1431
605.4	1421
605.6	1412
605.8	1411
606.0	1404
606.2	1398
606.4	1389
606.6	1381
606.8	1376
607.0	1374
607.2	1370
607.4	1362
607.6	1348
607.8	1338
608.0	1333
608.2	1330
608.4	1328
608.6	1320
608.8	1315
609.0	1311
609.2	1305
609.4	1299
609.6	1292
609.8	1281
610.0	1271
610.2	1263
610.4	1255
610.6	1249
610.8	1246
611.0	1243
611.2	1234
611.4	1230
611.6	1226
611.8	1221
612.0	1217
612.2	1214
612.4	1209
612.6	1201
612.8	1192
613.0	1181
613.2	1172
613.4	1168
613.6	1168
613.8	1163
614.0	1159
614.2	1153
614.4	1147
614.6	1138
614.8	1130
615.0	1120
615.2	1111
615.4	1109
615.6	1109
615.8	1101
616.0	1097
616.2	1092
616.4	1085
616.6	1081
616.8	1080
617.0	1073
617.2	1067
617.4	1060
617.6	1049
617.8	1043
618.0	1038
618.2	1035
618.4	1033
618.6	1027
618.8	1022
619.0	1015
619.2	1007
619.4	1002
619.6	993.0
619.8	986.6
620.0	986.6
620.2	982.2
620.4	982.0
620.6	974.9
620.8	962.3
621.0	953.3
621.2	947.8
621.4	942.1
621.6	939.8
621.8	936.8
622.0	933.9
622.2	929.5
622.4	925.5
622.6	917.9
622.8	912.6
623.0	910.2
623.2	906.2
623.4	900.4
623.6	897.0
623.8	886.7
624.0	880.9
624.2	876.1
624.4	868.7
624.6	865.3
624.8	864.7
625.0	859.1
625.2	852.1
625.4	845.1
625.6	839.3
625.8	837.8
626.0	837.3
626.2	833.2
626.4	825.2
626.6	817.3
626.8	813.0
627.0	809.4
627.2	805.6
627.4	800.1
627.6	796.0
627.8	789.5
628.0	783.5
628.2	778.5
628.4	776.1
628.6	772.7
628.8	770.6
629.0	763.7
629.2	756.0
629.4	749.0
629.6	746.7
629.8	743.0
630.0	742.3
630.2	741.3
630.4	738.6
630.6	734.7
630.8	730.0
631.0	722.5
631.2	717.8
631.4	714.7
631.6	709.4
631.8	704.8
632.0	697.2
632.2	692.4
632.4	690.0
632.6	685.7
632.8	684.7
633.0	680.6
633.2	674.0
633.4	669.1
633.6	664.3
633.8	657.9
634.0	656.7
634.2	653.3
634.4	651.1
634.6	647.8
634.8	643.0
635.0	641.9
635.2	639.0
635.4	636.0
635.6	631.9
635.8	625.8
636.0	620.7
636.2	618.4
636.4	615.4
636.6	613.0
636.8	611.3
637.0	609.3
637.2	607.6
637.4	600.9
637.6	594.3
637.8	587.7
638.0	583.1
638.2	580.1
638.4	578.6
638.6	574.3
638.8	569.0
639.0	566.7
639.2	562.8
639.4	561.0
639.6	560.7
639.8	556.0
640.0	551.2
640.2	546.9
640.4	539.5
640.6	534.7
640.8	532.5
641.0	531.0
641.2	529.6
641.4	528.2
641.6	526.6
641.8	526.9
642.0	523.3
642.2	521.0
642.4	513.7
642.6	505.6
642.8	501.2
643.0	501.0
643.2	496.7
643.4	495.6
643.6	491.9
643.8	488.3
644.0	487.5
644.2	486.4
644.4	483.9
644.6	480.0
644.8	475.0
645.0	471.7
645.2	468.6
645.4	465.3
645.6	463.0
645.8	459.7
646.0	456.7
646.2	453.0
646.4	448.6
646.6	443.5
646.8	440.0
647.0	438.6
647.2	437.9
647.4	439.4
647.6	440.3
647.8	437.1
648.0	434.7
648.2	431.4
648.4	424.7
648.6	420.2
648.8	414.6
649.0	409.5
649.2	410.4
649.4	410.1
649.6	409.0
649.8	408.3
650.0	403.8
650.2	400.9
650.4	399.7
650.6	394.4
650.8	391.6
651.0	388.7
651.2	388.4
651.4	387.4
651.6	386.6
651.8	383.5
652.0	381.3
652.2	376.6
652.4	374.1
652.6	371.7
652.8	368.3
653.0	365.3
653.2	362.0
653.4	357.8
653.6	357.7
653.8	358.4
654.0	355.4
654.2	354.5
654.4	350.7
654.6	348.9
654.8	347.1
655.0	344.1
655.2	341.9
655.4	340.0
655.6	337.4
655.8	336.8
656.0	333.7
656.2	332.5
656.4	328.6
656.6	326.0
656.8	323.9
657.0	322.8
657.2	320.3
657.4	319.5
657.6	315.3
657.8	314.8
658.0	313.4
658.2	311.5
658.4	309.3
658.6	306.7
658.8	303.6
659.0	301.9
659.2	298.5
659.4	294.9
659.6	293.9
659.8	291.5
660.0	288.6
660.2	288.1
660.4	285.9
660.6	285.5
660.8	285.3
661.0	284.9
661.2	281.2
661.4	279.6
661.6	275.7
661.8	273.0
662.0	270.3
662.2	269.0
662.4	268.1
662.6	268.7
662.8	267.1
663.0	265.0
663.2	261.5
663.4	257.0
663.6	255.5
663.8	256.1
664.0	255.3
664.2	254.6
664.4	253.6
664.6	252.3
664.8	251.0
665.0	250.9
665.2	248.2
665.4	245.3
665.6	243.5
665.8	242.5
666.0	240.4
666.2	238.5
666.4	235.3
666.6	234.7
666.8	232.5
667.0	229.5
667.2	229.2
667.4	228.1
667.6	227.3
667.8	227.0
668.0	224.8
668.2	222.5
668.4	221.8
668.6	219.9
668.8	219.2
669.0	215.5
669.2	213.7
669.4	212.7
669.6	211.6
669.8	209.7
670.0	209.4
670.2	207.8
670.4	207.7
670.6	206.3
670.8	205.1
671.0	202.5
671.2	200.3
671.4	199.0
671.6	197.8
671.8	195.7
672.0	194.9
672.2	193.4
672.4	191.4
672.6	191.8
672.8	189.9
673.0	188.8
673.2	188.3
673.4	187.5
673.6	185.4
673.8	185.1
674.0	182.7
674.2	181.8
674.4	179.1
674.6	176.9
674.8	174.8
675.0	175.6
675.2	175.2
675.4	174.5
675.6	173.5
675.8	172.2
676.0	171.8
676.2	170.9
676.4	167.6
676.6	165.0
676.8	164.0
677.0	164.2
677.2	162.9
677.4	160.9
677.6	158.4
677.8	157.8
678.0	156.8
678.2	157.9
678.4	156.3
678.6	154.8
678.8	152.7
679.0	151.0
679.2	149.7
679.4	149.8
679.6	149.9
679.8	147.9
680.0	147.2
680.2	145.8
680.4	144.6
680.6	144.8
680.8	144.4
681.0	142.7
681.2	141.6
681.4	140.1
681.6	137.8
681.8	137.0
682.0	135.6
682.2	134.7
682.4	134.8
682.6	135.0
682.8	134.1
683.0	133.1
683.2	132.4
683.4	132.5
683.6	132.8
683.8	132.8
684.0	131.1
684.2	129.4
684.4	127.3
684.6	125.3
684.8	123.6
685.0	123.0
685.2	123.0
685.4	123.5
685.6	121.7
685.8	119.7
686.0	119.1
686.2	118.3
686.4	119.5
686.6	119.7
686.8	117.7
687.0	117.1
687.2	115.5
687.4	113.7
687.6	113.1
687.8	112.0
688.0	110.5
688.2	110.3
688.4	108.7
688.6	108.0
688.8	107.8
689.0	107.2
689.2	107.9
689.4	107.8
689.6	108.0
689.8	107.5
690.0	106.2
690.2	105.4
690.4	105.1
690.6	104.0
690.8	103.0
691.0	101.4
691.2	99.60
691.4	99.14
691.6	98.50
691.8	98.14
692.0	97.59
692.2	96.89
692.4	96.62
692.6	96.82
692.8	96.17
693.0	96.31
693.2	95.07
693.4	93.23
693.6	92.68
693.8	92.50
694.0	91.99
694.2	92.98
694.4	91.69
694.6	90.36
694.8	88.89
695.0	87.03
695.2	85.66
695.4	85.87
695.6	86.13
695.8	86.24
696.0	85.98
696.2	85.68
696.4	85.11
696.6	84.81
696.8	84.72
697.0	84.03
697.2	84.16
697.4	83.48
697.6	83.26
697.8	82.48
698.0	80.90
698.2	79.41
698.4	79.42
698.6	78.68
698.8	79.28
699.0	79.45
699.2	78.16
699.4	77.37
699.6	77.23
699.8	76.43
700.0	75.89
700.2	75.73
700.4	74.67
700.6	74.34
700.8	74.06
701.0	74.18
701.2	73.76
701.4	73.20
701.6	72.41
701.8	72.12
702.0	71.41
702.2	70.87
702.4	70.33
702.6	69.88
702.8	69.83
703.0	69.86
703.2	69.67
703.4	69.26
703.6	68.42
703.8	68.24
704.0	67.63
704.2	67.59
704.4	68.21
704.6	68.11
704.8	66.95
705.0	66.05
705.2	64.30
705.4	63.38
705.6	63.26
705.8	63.05
706.0	63.46
706.2	63.63
706.4	63.41
706.6	62.32
706.8	62.39
707.0	61.85
707.2	60.54
707.4	59.23
707.6	58.79
707.8	58.64
708.0	59.66
708.2	59.85
708.4	59.24
708.6	58.55
708.8	58.19
709.0	58.05
709.2	57.85
709.4	57.56
709.6	57.31
709.8	56.59
710.0	56.23
710.2	55.94
710.4	55.59
710.6	55.81
710.8	55.30
711.0	55.15
711.2	54.79
711.4	54.15
711.6	53.64
711.8	53.48
712.0	52.56
712.2	52.78
712.4	52.07
712.6	51.40
712.8	51.15
713.0	50.63
713.2	49.89
713.4	49.77
713.6	49.68
713.8	49.57
714.0	49.51
714.2	49.33
714.4	48.90
714.6	48.40
714.8	47.86
715.0	47.51
715.2	46.97
715.4	46.33
715.6	46.27
715.8	45.99
716.0	45.43
716.2	45.80
716.4	45.51
716.6	44.95
716.8	45.20
717.0	44.93
717.2	44.11
717.4	44.10
717.6	43.40
717.8	43.04
718.0	42.60
718.2	42.34
718.4	41.65
718.6	41.68
718.8	41.63
719.0	41.44
719.2	40.99
719.4	40.61
719.6	40.31
719.8	40.97
720.0	41.30
720.2	40.63
720.4	40.36
720.6	38.86
720.8	37.90
721.0	38.35
721.2	38.46
721.4	38.61
721.6	38.91
721.8	38.32
722.0	37.23
722.2	36.97
722.4	36.14
722.6	35.91
722.8	35.58
723.0	35.66
723.2	35.48
723.4	35.61
723.6	35.47
723.8	35.15
724.0	34.53
724.2	34.45
724.4	34.60
724.6	34.11
724.8	34.15
725.0	33.07
725.2	32.67
725.4	32.74
725.6	32.87
725.8	32.98
726.0	32.85
726.2	31.43
726.4	31.12
726.6	31.24
726.8	31.04
727.0	31.33
727.2	31.34
727.4	30.69
727.6	30.53
727.8	30.50
728.0	30.23
728.2	29.50
728.4	29.70
728.6	29.29
728.8	29.22
729.0	28.81
729.2	29.10
729.4	28.65
729.6	28.45
729.8	28.24
730.0	27.53
730.2	27.47
730.4	27.72
730.6	27.81
730.8	27.50
731.0	27.39
731.2	26.12
731.4	26.10
731.6	25.82
731.8	26.34
732.0	26.43
732.2	26.04
732.4	25.11
732.6	24.92
732.8	24.54
733.0	24.35
733.2	24.84
733.4	25.24
733.6	25.12
733.8	25.62
734.0	24.85
734.2	23.33
734.4	22.71
734.6	22.92
734.8	23.15
735.0	23.92
735.2	23.34
735.4	22.82
735.6	22.03
735.8	22.01
736.0	22.41
736.2	22.85
736.4	22.04
736.6	21.84
736.8	21.30
737.0	21.20
737.2	21.63
737.4	21.67
737.6	21.64
737.8	21.60
738.0	21.33
738.2	20.90
738.4	20.47
738.6	19.57
738.8	19.89
739.0	19.95
739.2	19.62
739.4	19.44
739.6	19.16
739.8	18.79
740.0	19.05
740.2	19.34
740.4	19.05
740.6	19.19
740.8	18.86
741.0	18.48
741.2	18.13
741.4	18.21
741.6	18.12
741.8	17.94
742.0	17.46
742.2	17.18
742.4	17.49
742.6	17.81
742.8	17.72
743.0	17.73
743.2	17.45
743.4	17.30
743.6	17.57
743.8	17.45
744.0	17.25
744.2	17.25
744.4	16.72
744.6	16.02
744.8	15.55
745.0	14.99
745.2	14.92
745.4	15.41
745.6	15.76
745.8	15.78
746.0	16.38
746.2	16.33
746.4	16.18
746.6	16.34
746.8	15.84
747.0	15.22
747.2	15.01
747.4	14.22
747.6	14.23
747.8	14.51
748.0	14.43
748.2	14.73
748.4	14.56
748.6	13.95
748.8	13.98
749.0	13.64
749.2	13.09
749.4	13.37
749.6	13.59
749.8	13.91
750.0	13.81
750.2	13.73
750.4	13.30
750.6	13.62
750.8	13.47
751.0	13.37
751.2	12.88
751.4	13.04
751.6	12.79
751.8	12.67
752.0	12.61
752.2	12.43
752.4	12.40
752.6	12.58
752.8	12.40
753.0	12.29
753.2	12.54
753.4	12.33
753.6	12.24
753.8	12.13
754.0	11.55
754.2	11.98
754.4	12.45
754.6	12.63
754.8	12.33
755.0	11.87
755.2	10.93
755.4	10.99
755.6	11.25
755.8	11.51
756.0	11.61
756.2	11.77
756.4	11.75
756.6	11.38
756.8	11.18
757.0	10.71
757.2	10.73
757.4	10.65
757.6	10.86
757.8	10.63
758.0	10.41
758.2	9.909
758.4	9.659
758.6	9.470
758.8	9.854
759.0	9.726
759.2	9.805
759.4	9.771
759.6	9.682
759.8	10.08
760.0	10.21
760.2	9.682
760.4	9.711
760.6	9.591
760.8	9.953
761.0	10.38
761.2	9.829
761.4	9.532
761.6	9.208
761.8	9.146
762.0	9.350
762.2	9.819
762.4	9.251
762.6	9.295
762.8	8.739
763.0	8.637
763.2	8.591
763.4	9.098
763.6	9.018
763.8	9.160
764.0	8.737
764.2	8.226
764.4	8.385
764.6	8.684
764.8	9.179
765.0	9.121
765.2	8.683
765.4	8.037
765.6	8.350
765.8	8.515
766.0	9.091
766.2	8.686
766.4	8.191
766.6	7.900
766.8	8.087
767.0	8.126
767.2	8.250
767.4	7.818
767.6	7.716
767.8	7.793
768.0	7.771
768.2	7.987
768.4	7.918
768.6	7.626
768.8	7.585
769.0	7.375
769.2	7.550
769.4	7.557
769.6	7.437
769.8	7.091
770.0	6.956
770.2	7.060
770.4	7.510
770.6	7.630
770.8	7.539
771.0	7.132
771.2	6.994
771.4	6.711
771.6	6.335
771.8	6.544
772.0	6.679
772.2	6.650
772.4	7.024
772.6	7.005
772.8	6.620
773.0	6.732
773.2	6.709
773.4	6.345
773.6	6.495
773.8	6.441
774.0	6.184
774.2	6.221
774.4	6.094
774.6	5.997
774.8	6.051
775.0	6.253
775.2	6.259
775.4	6.192
775.6	6.013
775.8	5.924
776.0	5.766
776.2	6.028
776.4	6.012
776.6	6.240
776.8	6.239
777.0	6.204
777.2	6.017
777.4	5.857
777.6	5.651
777.8	5.716
778.0	5.697
778.2	6.040
778.4	5.980
778.6	5.892
778.8	5.822
779.0	5.630
779.2	5.667
779.4	5.743
779.6	5.765
779.8	5.873
780.0	5.864
780.2	5.632
780.4	5.715
780.6	5.425
780.8	5.320
781.0	5.490
781.2	5.621
781.4	5.505
781.6	5.556
781.8	5.512
782.0	5.400
782.2	5.504
782.4	5.581
782.6	5.459
782.8	5.490
783.0	5.383
783.2	5.347
783.4	5.206
783.6	5.258
783.8	5.365
784.0	5.594
784.2	5.353
784.4	5.544
784.6	5.377
784.8	5.229
785.0	5.326
785.2	5.475
785.4	5.571
785.6	5.841
785.8	5.763
786.0	5.342
786.2	5.000
786.4	4.878
786.6	4.985
786.8	5.083
787.0	5.325
787.2	5.622
787.4	5.742
787.6	5.822
787.8	5.737
788.0	5.630
788.2	5.671
788.4	6.015
788.6	6.328
788.8	6.348
789.0	6.050
789.2	6.139
789.4	6.244
789.6	6.225
789.8	6.273
790.0	6.000
790.2	5.649
790.4	5.995
790.6	6.482
790.8	6.782
791.0	6.814
791.2	6.523
791.4	6.149
791.6	6.223
791.8	6.531
792.0	6.573
792.2	6.423
792.4	6.579
792.6	6.675
792.8	7.070
793.0	7.212
793.2	7.132
793.4	6.884
793.6	7.089
793.8	7.139
794.0	7.176
794.2	7.252
794.4	7.333
794.6	7.585
794.8	7.894
795.0	8.237
795.2	8.348
795.4	8.241
795.6	7.882
795.8	7.461
796.0	7.201
796.2	7.256
796.4	7.384
796.6	7.143
796.8	7.337
797.0	7.364
797.2	7.410
797.4	7.655
797.6	7.652
797.8	7.408
798.0	7.551
798.2	7.693
798.4	7.950
798.6	8.251
798.8	8.141
799.0	7.746
799.2	7.574
799.4	7.670
799.6	8.244
799.8	8.485
800.0	7.916

