Sample:	'20211010A(EM)
File name:	G-NI 8.FDS
Run date:	'17:51:55, 06/19/2023
Operator:	Administrator
Comment:	'

Instrument
Model:	F-4700 FL Spectrophotometer
Serial number:	2019-001
ROM Version:	5J24010 00

Instrument parameters
Measurement type:	Wavelength scan
Scan mode:	Emission
Data mode:	Fluorescence
EX WL:	400.0 nm
EM  Start WL:	420.0 nm
EM  End WL:	800.0 nm
Scan speed:	1200 nm/min
Delay:	0.0 s
EX Slit:	10.0 nm
EM Slit:	10.0 nm
PMT Voltage:	500 V
Response:	0.002 s
Corrected spectra:	Off
Shutter control:	On

Processing performed
Savitsky-Golay smoothed
Smoothing order:	3
Number of points:	7
Number of times:	1

Peak integration
Integration method:	Rectangular
Sensitivity:	1
Threshold:	1.000

Peaks
No.	Start(nm)	Apex(nm)	End(nm)	Height(Data)	Valley(nm)	Valley(Data)
1	420.0	532.8	533.4	468.2	533.4	464.7
2	533.4	536.4	537.0	474.5	537.0	467.5
3	537.0	537.8	538.4	477.7	538.4	471.0
4	538.4	539.8	540.6	475.8	540.6	469.4
5	540.6	541.2	655.8	474.2	655.8	41.02
6	655.8	656.6	682.8	42.19	682.8	17.17
7	682.8	683.6	800.0	19.01	800.0	1.499

Data points
nm	Data
420.0	0.697
420.2	0.594
420.4	0.570
420.6	0.583
420.8	0.544
421.0	0.546
421.2	0.458
421.4	0.489
421.6	0.609
421.8	0.607
422.0	0.567
422.2	0.559
422.4	0.578
422.6	0.705
422.8	0.741
423.0	0.704
423.2	0.625
423.4	0.593
423.6	0.659
423.8	0.651
424.0	0.568
424.2	0.563
424.4	0.514
424.6	0.516
424.8	0.640
425.0	0.672
425.2	0.670
425.4	0.654
425.6	0.611
425.8	0.545
426.0	0.541
426.2	0.574
426.4	0.628
426.6	0.736
426.8	0.846
427.0	0.803
427.2	0.677
427.4	0.650
427.6	0.664
427.8	0.702
428.0	0.770
428.2	0.713
428.4	0.601
428.6	0.651
428.8	0.596
429.0	0.680
429.2	0.776
429.4	0.754
429.6	0.677
429.8	0.665
430.0	0.626
430.2	0.638
430.4	0.627
430.6	0.548
430.8	0.467
431.0	0.414
431.2	0.457
431.4	0.508
431.6	0.658
431.8	0.674
432.0	0.752
432.2	0.670
432.4	0.679
432.6	0.629
432.8	0.567
433.0	0.543
433.2	0.641
433.4	0.679
433.6	0.768
433.8	0.692
434.0	0.620
434.2	0.627
434.4	0.618
434.6	0.687
434.8	0.691
435.0	0.708
435.2	0.716
435.4	0.639
435.6	0.651
435.8	0.682
436.0	0.690
436.2	0.749
436.4	0.697
436.6	0.655
436.8	0.669
437.0	0.644
437.2	0.656
437.4	0.658
437.6	0.697
437.8	0.755
438.0	0.767
438.2	0.728
438.4	0.677
438.6	0.715
438.8	0.748
439.0	0.699
439.2	0.697
439.4	0.664
439.6	0.616
439.8	0.734
440.0	0.788
440.2	0.746
440.4	0.797
440.6	0.736
440.8	0.652
441.0	0.633
441.2	0.564
441.4	0.494
441.6	0.529
441.8	0.515
442.0	0.614
442.2	0.687
442.4	0.659
442.6	0.714
442.8	0.710
443.0	0.673
443.2	0.686
443.4	0.763
443.6	0.681
443.8	0.666
444.0	0.632
444.2	0.520
444.4	0.652
444.6	0.861
444.8	0.777
445.0	0.755
445.2	0.717
445.4	0.478
445.6	0.476
445.8	0.481
446.0	0.456
446.2	0.601
446.4	0.716
446.6	0.720
446.8	0.695
447.0	0.643
447.2	0.593
447.4	0.695
447.6	0.740
447.8	0.759
448.0	0.760
448.2	0.730
448.4	0.762
448.6	0.814
448.8	0.795
449.0	0.778
449.2	0.788
449.4	0.852
449.6	0.828
449.8	0.828
450.0	0.758
450.2	0.745
450.4	0.674
450.6	0.717
450.8	0.706
451.0	0.738
451.2	0.698
451.4	0.631
451.6	0.486
451.8	0.444
452.0	0.508
452.2	0.538
452.4	0.517
452.6	0.483
452.8	0.403
453.0	0.464
453.2	0.589
453.4	0.707
453.6	0.797
453.8	0.765
454.0	0.637
454.2	0.619
454.4	0.605
454.6	0.573
454.8	0.758
455.0	0.773
455.2	0.693
455.4	0.624
455.6	0.564
455.8	0.491
456.0	0.583
456.2	0.606
456.4	0.508
456.6	0.465
456.8	0.440
457.0	0.465
457.2	0.597
457.4	0.667
457.6	0.622
457.8	0.665
458.0	0.712
458.2	0.872
458.4	1.005
458.6	0.964
458.8	0.867
459.0	0.791
459.2	0.724
459.4	0.789
459.6	0.813
459.8	0.813
460.0	0.735
460.2	0.623
460.4	0.558
460.6	0.616
460.8	0.696
461.0	0.778
461.2	0.738
461.4	0.744
461.6	0.720
461.8	0.750
462.0	0.692
462.2	0.646
462.4	0.716
462.6	0.764
462.8	0.840
463.0	0.946
463.2	0.936
463.4	0.886
463.6	0.948
463.8	0.879
464.0	0.901
464.2	0.895
464.4	0.850
464.6	0.790
464.8	0.877
465.0	0.934
465.2	0.956
465.4	0.883
465.6	0.912
465.8	0.964
466.0	1.023
466.2	1.061
466.4	1.065
466.6	0.993
466.8	1.117
467.0	1.226
467.2	1.179
467.4	1.104
467.6	1.064
467.8	1.057
468.0	1.027
468.2	1.136
468.4	1.095
468.6	1.093
468.8	1.177
469.0	1.306
469.2	1.406
469.4	1.586
469.6	1.484
469.8	1.382
470.0	1.278
470.2	1.445
470.4	1.622
470.6	1.790
470.8	1.862
471.0	1.824
471.2	1.738
471.4	1.798
471.6	1.823
471.8	1.763
472.0	1.821
472.2	1.790
472.4	1.756
472.6	1.917
472.8	2.088
473.0	2.156
473.2	2.300
473.4	2.247
473.6	2.180
473.8	2.248
474.0	2.277
474.2	2.459
474.4	2.578
474.6	2.677
474.8	2.734
475.0	2.937
475.2	3.016
475.4	3.151
475.6	3.277
475.8	3.300
476.0	3.417
476.2	3.665
476.4	3.451
476.6	3.532
476.8	3.552
477.0	3.569
477.2	3.737
477.4	3.849
477.6	4.113
477.8	4.275
478.0	4.542
478.2	4.820
478.4	4.852
478.6	4.778
478.8	5.139
479.0	5.185
479.2	5.714
479.4	6.103
479.6	6.194
479.8	6.324
480.0	6.329
480.2	6.164
480.4	6.284
480.6	6.716
480.8	7.135
481.0	7.601
481.2	7.841
481.4	8.051
481.6	8.207
481.8	8.455
482.0	8.808
482.2	8.788
482.4	9.439
482.6	10.16
482.8	10.47
483.0	10.43
483.2	10.45
483.4	10.30
483.6	10.86
483.8	11.70
484.0	12.42
484.2	12.94
484.4	13.57
484.6	13.62
484.8	13.53
485.0	13.65
485.2	14.45
485.4	15.30
485.6	16.38
485.8	17.17
486.0	17.34
486.2	17.62
486.4	17.77
486.6	18.09
486.8	18.65
487.0	19.40
487.2	19.94
487.4	21.10
487.6	20.97
487.8	21.35
488.0	22.18
488.2	23.43
488.4	24.60
488.6	26.43
488.8	27.28
489.0	27.39
489.2	27.27
489.4	27.60
489.6	27.75
489.8	29.05
490.0	30.17
490.2	31.59
490.4	32.18
490.6	33.66
490.8	35.19
491.0	36.50
491.2	37.25
491.4	38.33
491.6	38.47
491.8	39.10
492.0	40.26
492.2	41.37
492.4	42.80
492.6	44.08
492.8	45.14
493.0	45.94
493.2	47.43
493.4	49.15
493.6	50.94
493.8	52.91
494.0	54.24
494.2	55.38
494.4	55.95
494.6	57.04
494.8	58.68
495.0	60.75
495.2	62.11
495.4	63.22
495.6	63.88
495.8	65.87
496.0	68.34
496.2	69.87
496.4	71.18
496.6	72.82
496.8	74.38
497.0	76.20
497.2	78.97
497.4	80.75
497.6	83.18
497.8	85.51
498.0	86.36
498.2	87.09
498.4	88.66
498.6	90.60
498.8	93.24
499.0	95.15
499.2	97.76
499.4	100.5
499.6	103.3
499.8	105.8
500.0	107.4
500.2	108.2
500.4	109.9
500.6	112.8
500.8	116.8
501.0	119.7
501.2	121.7
501.4	124.3
501.6	125.4
501.8	127.7
502.0	129.5
502.2	131.5
502.4	133.1
502.6	137.3
502.8	139.9
503.0	141.9
503.2	143.4
503.4	145.9
503.6	147.4
503.8	150.3
504.0	152.9
504.2	155.6
504.4	159.7
504.6	164.5
504.8	167.5
505.0	169.5
505.2	171.3
505.4	174.4
505.6	178.3
505.8	181.6
506.0	183.4
506.2	184.7
506.4	186.9
506.6	190.4
506.8	194.1
507.0	196.3
507.2	198.3
507.4	200.9
507.6	204.9
507.8	208.1
508.0	211.8
508.2	214.3
508.4	217.0
508.6	220.4
508.8	222.5
509.0	223.5
509.2	227.4
509.4	230.8
509.6	234.2
509.8	237.5
510.0	239.6
510.2	240.7
510.4	245.6
510.6	251.2
510.8	255.4
511.0	258.4
511.2	259.3
511.4	259.0
511.6	259.8
511.8	264.0
512.0	268.0
512.2	271.2
512.4	273.2
512.6	274.4
512.8	276.3
513.0	279.3
513.2	283.3
513.4	286.9
513.6	290.0
513.8	292.4
514.0	296.1
514.2	297.9
514.4	299.7
514.6	302.5
514.8	305.4
515.0	310.0
515.2	315.3
515.4	318.1
515.6	319.0
515.8	319.2
516.0	320.8
516.2	326.5
516.4	330.5
516.6	333.2
516.8	335.2
517.0	334.4
517.2	337.9
517.4	341.5
517.6	341.6
517.8	344.9
518.0	349.0
518.2	351.4
518.4	355.9
518.6	359.0
518.8	361.1
519.0	362.4
519.2	363.1
519.4	364.5
519.6	366.7
519.8	369.4
520.0	372.5
520.2	374.2
520.4	373.7
520.6	377.0
520.8	382.1
521.0	384.4
521.2	387.8
521.4	391.7
521.6	391.3
521.8	392.3
522.0	393.7
522.2	395.5
522.4	398.5
522.6	400.6
522.8	402.4
523.0	402.6
523.2	405.2
523.4	407.9
523.6	411.3
523.8	412.4
524.0	415.6
524.2	415.5
524.4	415.8
524.6	416.4
524.8	419.0
525.0	420.5
525.2	424.2
525.4	427.3
525.6	427.9
525.8	428.9
526.0	430.1
526.2	429.9
526.4	430.6
526.6	431.4
526.8	432.8
527.0	434.0
527.2	437.6
527.4	440.6
527.6	442.8
527.8	441.2
528.0	441.5
528.2	442.4
528.4	442.6
528.6	443.8
528.8	444.6
529.0	445.7
529.2	448.9
529.4	452.7
529.6	453.1
529.8	452.3
530.0	449.4
530.2	448.0
530.4	449.4
530.6	453.8
530.8	455.9
531.0	458.0
531.2	458.3
531.4	455.9
531.6	456.0
531.8	456.3
532.0	455.9
532.2	460.6
532.4	466.2
532.6	467.4
532.8	468.2
533.0	465.2
533.2	465.4
533.4	464.7
533.6	466.2
533.8	464.8
534.0	465.2
534.2	466.1
534.4	469.5
534.6	467.9
534.8	468.6
535.0	467.6
535.2	469.0
535.4	470.4
535.6	469.5
535.8	470.8
536.0	473.7
536.2	473.4
536.4	474.5
536.6	473.1
536.8	468.6
537.0	467.5
537.2	470.4
537.4	471.5
537.6	475.1
537.8	477.7
538.0	476.2
538.2	473.4
538.4	471.0
538.6	471.5
538.8	471.0
539.0	472.7
539.2	472.8
539.4	474.4
539.6	472.1
539.8	475.8
540.0	474.0
540.2	471.2
540.4	469.6
540.6	469.4
540.8	470.7
541.0	474.0
541.2	474.2
541.4	473.5
541.6	472.0
541.8	470.5
542.0	470.8
542.2	470.6
542.4	469.4
542.6	469.9
542.8	467.9
543.0	468.2
543.2	466.2
543.4	466.4
543.6	467.9
543.8	467.7
544.0	466.7
544.2	465.2
544.4	463.5
544.6	464.4
544.8	467.3
545.0	468.4
545.2	467.5
545.4	464.1
545.6	463.5
545.8	463.2
546.0	465.4
546.2	468.2
546.4	469.7
546.6	465.8
546.8	462.5
547.0	457.8
547.2	457.4
547.4	458.8
547.6	460.1
547.8	457.6
548.0	454.3
548.2	453.2
548.4	453.5
548.6	454.7
548.8	453.5
549.0	453.5
549.2	453.5
549.4	455.0
549.6	454.4
549.8	452.4
550.0	451.5
550.2	448.4
550.4	449.6
550.6	448.6
550.8	448.7
551.0	449.0
551.2	449.5
551.4	447.9
551.6	447.1
551.8	446.5
552.0	443.8
552.2	442.9
552.4	440.6
552.6	440.2
552.8	438.0
553.0	438.2
553.2	435.3
553.4	435.5
553.6	433.6
553.8	433.0
554.0	432.7
554.2	433.9
554.4	434.0
554.6	435.0
554.8	434.0
555.0	432.1
555.2	428.9
555.4	429.7
555.6	430.2
555.8	429.5
556.0	428.5
556.2	425.1
556.4	422.2
556.6	421.0
556.8	422.4
557.0	421.9
557.2	422.3
557.4	422.8
557.6	424.7
557.8	422.1
558.0	419.9
558.2	415.1
558.4	412.0
558.6	411.0
558.8	411.3
559.0	410.0
559.2	410.1
559.4	408.9
559.6	407.5
559.8	409.5
560.0	408.8
560.2	407.8
560.4	407.9
560.6	407.2
560.8	404.5
561.0	404.1
561.2	402.6
561.4	402.0
561.6	400.8
561.8	397.9
562.0	396.7
562.2	394.6
562.4	394.8
562.6	395.8
562.8	394.9
563.0	393.9
563.2	394.6
563.4	391.9
563.6	389.5
563.8	388.8
564.0	388.0
564.2	387.7
564.4	386.3
564.6	387.0
564.8	386.5
565.0	385.8
565.2	383.7
565.4	379.3
565.6	377.2
565.8	378.9
566.0	380.3
566.2	377.5
566.4	375.4
566.6	372.4
566.8	372.3
567.0	372.7
567.2	372.6
567.4	369.1
567.6	367.5
567.8	365.0
568.0	363.6
568.2	360.4
568.4	359.6
568.6	357.3
568.8	357.5
569.0	358.6
569.2	358.8
569.4	356.2
569.6	356.9
569.8	354.7
570.0	353.8
570.2	353.4
570.4	354.0
570.6	353.4
570.8	350.7
571.0	348.2
571.2	345.9
571.4	345.5
571.6	345.8
571.8	346.0
572.0	344.2
572.2	341.4
572.4	338.7
572.6	335.2
572.8	333.5
573.0	334.0
573.2	336.7
573.4	336.8
573.6	336.8
573.8	334.7
574.0	332.2
574.2	330.0
574.4	328.9
574.6	325.0
574.8	324.6
575.0	323.6
575.2	321.6
575.4	321.6
575.6	321.8
575.8	321.4
576.0	321.5
576.2	320.4
576.4	319.0
576.6	316.4
576.8	314.4
577.0	313.8
577.2	311.0
577.4	312.5
577.6	312.3
577.8	311.7
578.0	310.8
578.2	308.5
578.4	304.4
578.6	303.2
578.8	301.3
579.0	301.2
579.2	301.1
579.4	300.5
579.6	300.2
579.8	298.9
580.0	298.0
580.2	295.9
580.4	294.4
580.6	294.9
580.8	292.3
581.0	290.6
581.2	290.0
581.4	289.4
581.6	289.3
581.8	291.3
582.0	287.8
582.2	286.0
582.4	283.7
582.6	281.9
582.8	280.0
583.0	281.5
583.2	281.0
583.4	279.6
583.6	278.0
583.8	274.2
584.0	271.6
584.2	270.6
584.4	270.9
584.6	271.9
584.8	271.7
585.0	269.8
585.2	269.0
585.4	266.5
585.6	265.8
585.8	265.3
586.0	263.1
586.2	262.0
586.4	260.8
586.6	261.1
586.8	260.9
587.0	259.9
587.2	258.8
587.4	256.8
587.6	254.1
587.8	253.1
588.0	251.1
588.2	250.8
588.4	250.2
588.6	249.9
588.8	248.6
589.0	248.6
589.2	247.5
589.4	247.5
589.6	247.0
589.8	245.7
590.0	243.0
590.2	242.6
590.4	241.4
590.6	241.3
590.8	240.9
591.0	240.8
591.2	239.1
591.4	239.2
591.6	238.3
591.8	236.3
592.0	233.5
592.2	233.5
592.4	232.5
592.6	232.4
592.8	232.8
593.0	231.6
593.2	228.3
593.4	227.5
593.6	225.2
593.8	222.6
594.0	223.5
594.2	223.6
594.4	223.1
594.6	224.1
594.8	222.5
595.0	220.1
595.2	219.0
595.4	217.5
595.6	217.6
595.8	218.0
596.0	217.6
596.2	215.8
596.4	214.0
596.6	211.9
596.8	210.1
597.0	208.7
597.2	208.0
597.4	206.9
597.6	205.6
597.8	205.3
598.0	204.1
598.2	203.9
598.4	202.8
598.6	202.5
598.8	201.6
599.0	201.1
599.2	199.5
599.4	198.7
599.6	197.0
599.8	198.3
600.0	197.5
600.2	196.8
600.4	195.6
600.6	193.7
600.8	193.3
601.0	193.5
601.2	191.9
601.4	190.7
601.6	189.3
601.8	188.5
602.0	188.6
602.2	187.8
602.4	187.3
602.6	184.4
602.8	182.8
603.0	182.9
603.2	182.7
603.4	184.3
603.6	184.2
603.8	182.3
604.0	181.0
604.2	180.5
604.4	179.7
604.6	179.1
604.8	176.6
605.0	174.7
605.2	174.6
605.4	174.6
605.6	173.7
605.8	171.8
606.0	169.6
606.2	167.4
606.4	167.6
606.6	167.1
606.8	166.2
607.0	165.4
607.2	165.6
607.4	164.8
607.6	164.2
607.8	163.7
608.0	163.5
608.2	163.1
608.4	162.7
608.6	159.8
608.8	158.1
609.0	158.0
609.2	158.1
609.4	159.3
609.6	160.1
609.8	158.8
610.0	156.7
610.2	155.2
610.4	152.6
610.6	151.8
610.8	152.4
611.0	151.8
611.2	150.9
611.4	150.6
611.6	149.3
611.8	148.3
612.0	147.8
612.2	146.7
612.4	146.4
612.6	145.9
612.8	145.5
613.0	143.1
613.2	141.5
613.4	141.5
613.6	142.6
613.8	142.2
614.0	142.1
614.2	140.6
614.4	139.0
614.6	137.5
614.8	137.6
615.0	137.5
615.2	137.4
615.4	138.3
615.6	137.4
615.8	135.8
616.0	134.4
616.2	133.4
616.4	131.9
616.6	132.1
616.8	131.7
617.0	132.3
617.2	131.8
617.4	130.5
617.6	128.9
617.8	127.8
618.0	126.9
618.2	127.3
618.4	127.0
618.6	126.9
618.8	126.1
619.0	124.7
619.2	123.9
619.4	123.3
619.6	122.4
619.8	122.4
620.0	120.7
620.2	119.4
620.4	119.6
620.6	119.0
620.8	118.8
621.0	118.0
621.2	116.9
621.4	116.9
621.6	116.7
621.8	116.4
622.0	115.5
622.2	113.9
622.4	112.9
622.6	112.8
622.8	112.2
623.0	112.0
623.2	112.1
623.4	112.0
623.6	110.6
623.8	108.4
624.0	107.0
624.2	105.6
624.4	105.3
624.6	106.3
624.8	106.3
625.0	105.3
625.2	105.4
625.4	105.0
625.6	104.0
625.8	104.5
626.0	104.3
626.2	103.3
626.4	102.7
626.6	101.5
626.8	99.93
627.0	98.79
627.2	98.93
627.4	99.24
627.6	99.65
627.8	99.61
628.0	98.48
628.2	97.11
628.4	96.08
628.6	96.02
628.8	96.00
629.0	95.00
629.2	93.52
629.4	93.08
629.6	92.20
629.8	92.27
630.0	92.89
630.2	91.36
630.4	90.30
630.6	89.95
630.8	89.63
631.0	90.14
631.2	91.22
631.4	90.15
631.6	88.82
631.8	87.66
632.0	85.77
632.2	84.98
632.4	85.91
632.6	85.95
632.8	86.23
633.0	85.70
633.2	83.78
633.4	82.14
633.6	81.11
633.8	80.31
634.0	80.87
634.2	81.32
634.4	81.72
634.6	81.52
634.8	81.09
635.0	80.38
635.2	80.18
635.4	79.36
635.6	78.90
635.8	77.35
636.0	77.17
636.2	77.17
636.4	77.97
636.6	77.25
636.8	77.52
637.0	76.95
637.2	75.80
637.4	75.71
637.6	74.63
637.8	73.18
638.0	72.24
638.2	72.30
638.4	71.96
638.6	73.13
638.8	71.81
639.0	71.87
639.2	70.60
639.4	70.26
639.6	70.23
639.8	69.57
640.0	68.76
640.2	69.83
640.4	69.29
640.6	68.56
640.8	67.67
641.0	66.41
641.2	66.22
641.4	66.83
641.6	66.57
641.8	65.91
642.0	65.05
642.2	64.66
642.4	64.30
642.6	63.78
642.8	63.23
643.0	62.95
643.2	62.51
643.4	62.04
643.6	61.79
643.8	61.18
644.0	60.95
644.2	60.85
644.4	61.07
644.6	60.42
644.8	60.20
645.0	59.64
645.2	59.31
645.4	58.89
645.6	58.69
645.8	58.53
646.0	58.32
646.2	57.53
646.4	56.51
646.6	55.74
646.8	55.91
647.0	56.70
647.2	57.25
647.4	56.75
647.6	55.58
647.8	54.61
648.0	54.93
648.2	54.22
648.4	53.72
648.6	53.17
648.8	52.01
649.0	51.31
649.2	50.98
649.4	50.72
649.6	51.14
649.8	51.72
650.0	50.80
650.2	50.22
650.4	49.36
650.6	50.07
650.8	50.09
651.0	50.34
651.2	50.16
651.4	49.39
651.6	48.31
651.8	48.04
652.0	47.28
652.2	47.69
652.4	48.95
652.6	49.26
652.8	48.42
653.0	47.60
653.2	46.97
653.4	46.26
653.6	46.43
653.8	46.21
654.0	45.90
654.2	45.43
654.4	45.35
654.6	44.72
654.8	44.10
655.0	43.90
655.2	43.13
655.4	42.13
655.6	41.58
655.8	41.02
656.0	41.03
656.2	41.91
656.4	41.96
656.6	42.19
656.8	42.03
657.0	41.63
657.2	40.95
657.4	40.60
657.6	40.59
657.8	39.97
658.0	39.13
658.2	38.88
658.4	38.58
658.6	39.11
658.8	39.74
659.0	39.49
659.2	38.99
659.4	38.96
659.6	38.84
659.8	38.73
660.0	38.31
660.2	37.65
660.4	36.64
660.6	36.27
660.8	36.56
661.0	36.52
661.2	37.13
661.4	36.93
661.6	36.30
661.8	35.54
662.0	34.99
662.2	34.64
662.4	35.15
662.6	35.53
662.8	35.31
663.0	34.31
663.2	33.76
663.4	33.43
663.6	33.24
663.8	33.48
664.0	33.52
664.2	33.62
664.4	34.06
664.6	34.08
664.8	33.53
665.0	32.79
665.2	32.66
665.4	32.36
665.6	31.65
665.8	30.98
666.0	30.19
666.2	29.99
666.4	30.08
666.6	30.69
666.8	30.73
667.0	30.26
667.2	29.99
667.4	29.91
667.6	29.81
667.8	30.38
668.0	30.38
668.2	29.62
668.4	29.22
668.6	28.59
668.8	28.73
669.0	29.03
669.2	29.26
669.4	28.83
669.6	28.81
669.8	28.49
670.0	28.27
670.2	27.93
670.4	27.32
670.6	26.43
670.8	25.72
671.0	25.55
671.2	26.47
671.4	27.23
671.6	27.18
671.8	27.14
672.0	26.46
672.2	25.39
672.4	25.44
672.6	24.98
672.8	24.65
673.0	24.68
673.2	24.91
673.4	24.63
673.6	24.90
673.8	24.15
674.0	24.02
674.2	23.64
674.4	23.20
674.6	22.96
674.8	23.00
675.0	22.41
675.2	22.85
675.4	22.95
675.6	23.31
675.8	23.03
676.0	22.57
676.2	22.31
676.4	21.92
676.6	21.70
676.8	22.18
677.0	21.69
677.2	21.57
677.4	21.77
677.6	21.00
677.8	21.23
678.0	21.52
678.2	21.18
678.4	21.24
678.6	21.26
678.8	20.80
679.0	20.60
679.2	20.33
679.4	19.73
679.6	19.37
679.8	19.19
680.0	19.45
680.2	19.49
680.4	19.94
680.6	19.93
680.8	19.62
681.0	19.27
681.2	19.07
681.4	18.90
681.6	19.25
681.8	19.55
682.0	19.48
682.2	18.81
682.4	18.08
682.6	17.43
682.8	17.17
683.0	17.58
683.2	18.29
683.4	18.87
683.6	19.01
683.8	18.77
684.0	18.61
684.2	18.26
684.4	17.55
684.6	17.51
684.8	16.98
685.0	16.33
685.2	16.45
685.4	16.30
685.6	16.16
685.8	16.54
686.0	16.67
686.2	16.29
686.4	16.04
686.6	15.75
686.8	15.98
687.0	16.02
687.2	16.08
687.4	16.02
687.6	15.52
687.8	15.35
688.0	15.22
688.2	15.17
688.4	15.08
688.6	15.07
688.8	15.14
689.0	15.11
689.2	14.81
689.4	14.95
689.6	14.45
689.8	13.93
690.0	13.93
690.2	13.99
690.4	14.34
690.6	14.85
690.8	14.68
691.0	14.19
691.2	13.48
691.4	13.48
691.6	13.47
691.8	13.56
692.0	13.92
692.2	13.87
692.4	13.47
692.6	13.53
692.8	13.27
693.0	12.83
693.2	12.82
693.4	12.75
693.6	13.13
693.8	13.49
694.0	13.71
694.2	13.30
694.4	12.75
694.6	12.44
694.8	12.46
695.0	12.34
695.2	12.28
695.4	12.20
695.6	11.95
695.8	12.03
696.0	12.19
696.2	12.20
696.4	12.19
696.6	12.33
696.8	12.23
697.0	12.05
697.2	11.99
697.4	11.70
697.6	11.43
697.8	11.43
698.0	11.44
698.2	11.57
698.4	11.60
698.6	11.47
698.8	11.33
699.0	11.15
699.2	11.11
699.4	11.39
699.6	11.36
699.8	11.16
700.0	11.61
700.2	11.51
700.4	11.03
700.6	10.69
700.8	10.19
701.0	9.549
701.2	9.811
701.4	10.16
701.6	10.40
701.8	10.32
702.0	10.03
702.2	9.711
702.4	9.668
702.6	9.804
702.8	10.17
703.0	10.33
703.2	10.12
703.4	10.09
703.6	9.817
703.8	9.431
704.0	9.224
704.2	9.436
704.4	9.454
704.6	9.449
704.8	9.374
705.0	9.059
705.2	8.690
705.4	8.790
705.6	8.843
705.8	9.057
706.0	9.178
706.2	8.983
706.4	9.104
706.6	9.382
706.8	9.353
707.0	9.072
707.2	8.894
707.4	8.762
707.6	8.999
707.8	9.287
708.0	9.477
708.2	9.150
708.4	9.046
708.6	8.921
708.8	8.668
709.0	8.385
709.2	8.286
709.4	8.211
709.6	8.291
709.8	8.635
710.0	8.558
710.2	8.502
710.4	7.992
710.6	7.770
710.8	7.784
711.0	7.855
711.2	7.872
711.4	7.800
711.6	7.462
711.8	7.379
712.0	7.382
712.2	7.490
712.4	7.440
712.6	7.224
712.8	7.122
713.0	7.139
713.2	7.236
713.4	7.691
713.6	7.649
713.8	7.460
714.0	7.131
714.2	7.012
714.4	7.269
714.6	7.366
714.8	7.386
715.0	7.110
715.2	6.885
715.4	6.760
715.6	6.998
715.8	7.291
716.0	7.250
716.2	7.047
716.4	7.021
716.6	6.800
716.8	6.739
717.0	6.853
717.2	6.555
717.4	6.397
717.6	6.390
717.8	6.045
718.0	6.133
718.2	6.116
718.4	6.111
718.6	6.199
718.8	6.242
719.0	6.200
719.2	6.316
719.4	6.676
719.6	6.704
719.8	6.650
720.0	6.434
720.2	6.186
720.4	5.941
720.6	5.936
720.8	5.895
721.0	5.956
721.2	6.075
721.4	5.893
721.6	5.731
721.8	5.750
722.0	5.522
722.2	5.638
722.4	5.711
722.6	5.477
722.8	5.446
723.0	5.712
723.2	5.647
723.4	5.619
723.6	5.388
723.8	5.176
724.0	4.907
724.2	4.949
724.4	5.112
724.6	5.182
724.8	5.261
725.0	5.084
725.2	5.003
725.4	4.963
725.6	4.924
725.8	4.831
726.0	4.931
726.2	4.527
726.4	4.829
726.6	4.902
726.8	5.136
727.0	5.305
727.2	5.436
727.4	5.199
727.6	4.984
727.8	4.634
728.0	4.631
728.2	4.707
728.4	4.607
728.6	4.486
728.8	4.312
729.0	4.013
729.2	4.267
729.4	4.496
729.6	4.285
729.8	4.110
730.0	3.911
730.2	3.669
730.4	3.671
730.6	3.913
730.8	4.132
731.0	4.391
731.2	4.326
731.4	4.365
731.6	4.068
731.8	3.948
732.0	3.948
732.2	3.866
732.4	3.762
732.6	3.864
732.8	3.707
733.0	3.710
733.2	3.895
733.4	3.840
733.6	3.991
733.8	4.024
734.0	3.918
734.2	4.081
734.4	4.091
734.6	3.654
734.8	3.280
735.0	2.987
735.2	3.023
735.4	3.358
735.6	3.701
735.8	3.908
736.0	3.620
736.2	3.544
736.4	3.521
736.6	3.418
736.8	3.422
737.0	3.265
737.2	2.998
737.4	2.857
737.6	3.214
737.8	3.460
738.0	3.351
738.2	3.149
738.4	3.086
738.6	3.071
738.8	3.185
739.0	3.263
739.2	3.110
739.4	3.103
739.6	3.246
739.8	3.353
740.0	2.920
740.2	2.816
740.4	2.927
740.6	3.198
740.8	3.391
741.0	3.474
741.2	3.185
741.4	3.183
741.6	3.024
741.8	2.998
742.0	2.706
742.2	2.635
742.4	2.753
742.6	3.026
742.8	2.922
743.0	2.968
743.2	2.825
743.4	2.610
743.6	2.611
743.8	2.822
744.0	2.783
744.2	2.772
744.4	2.819
744.6	2.588
744.8	2.634
745.0	2.854
745.2	2.847
745.4	2.755
745.6	2.673
745.8	2.576
746.0	2.511
746.2	2.394
746.4	2.457
746.6	2.436
746.8	2.444
747.0	2.700
747.2	2.718
747.4	2.759
747.6	2.818
747.8	2.653
748.0	2.596
748.2	2.657
748.4	2.592
748.6	2.489
748.8	2.299
749.0	2.401
749.2	2.562
749.4	2.689
749.6	2.766
749.8	2.530
750.0	2.305
750.2	2.413
750.4	2.483
750.6	2.555
750.8	2.519
751.0	2.343
751.2	2.155
751.4	2.182
751.6	2.167
751.8	2.254
752.0	2.231
752.2	2.170
752.4	2.386
752.6	2.753
752.8	2.669
753.0	2.703
753.2	2.511
753.4	2.180
753.6	2.196
753.8	2.092
754.0	1.977
754.2	2.187
754.4	2.123
754.6	2.018
754.8	2.024
755.0	1.890
755.2	1.977
755.4	2.152
755.6	2.191
755.8	2.198
756.0	2.081
756.2	1.992
756.4	1.941
756.6	1.858
756.8	1.903
757.0	1.983
757.2	1.862
757.4	1.897
757.6	1.907
757.8	1.937
758.0	2.018
758.2	2.168
758.4	2.121
758.6	2.000
758.8	1.862
759.0	1.802
759.2	1.841
759.4	1.925
759.6	1.791
759.8	1.695
760.0	1.705
760.2	1.581
760.4	1.690
760.6	1.732
760.8	1.637
761.0	1.696
761.2	1.757
761.4	1.623
761.6	1.633
761.8	1.546
762.0	1.555
762.2	1.585
762.4	1.578
762.6	1.524
762.8	1.545
763.0	1.515
763.2	1.693
763.4	1.917
763.6	1.914
763.8	1.896
764.0	1.841
764.2	1.611
764.4	1.512
764.6	1.546
764.8	1.361
765.0	1.408
765.2	1.436
765.4	1.519
765.6	1.555
765.8	1.561
766.0	1.601
766.2	1.554
766.4	1.520
766.6	1.498
766.8	1.533
767.0	1.581
767.2	1.736
767.4	1.669
767.6	1.684
767.8	1.624
768.0	1.636
768.2	1.604
768.4	1.554
768.6	1.368
768.8	1.381
769.0	1.542
769.2	1.529
769.4	1.647
769.6	1.568
769.8	1.398
770.0	1.340
770.2	1.490
770.4	1.448
770.6	1.480
770.8	1.378
771.0	1.335
771.2	1.230
771.4	1.342
771.6	1.379
771.8	1.385
772.0	1.395
772.2	1.383
772.4	1.294
772.6	1.222
772.8	1.030
773.0	1.089
773.2	1.139
773.4	1.158
773.6	1.224
773.8	1.193
774.0	1.280
774.2	1.435
774.4	1.410
774.6	1.368
774.8	1.325
775.0	1.265
775.2	1.421
775.4	1.340
775.6	1.300
775.8	1.177
776.0	1.108
776.2	1.111
776.4	1.231
776.6	1.340
776.8	1.406
777.0	1.364
777.2	1.373
777.4	1.259
777.6	1.179
777.8	1.122
778.0	1.042
778.2	1.015
778.4	1.180
778.6	1.268
778.8	1.268
779.0	1.240
779.2	1.249
779.4	1.033
779.6	1.206
779.8	1.361
780.0	1.420
780.2	1.325
780.4	1.295
780.6	1.090
780.8	1.093
781.0	1.099
781.2	1.112
781.4	0.958
781.6	1.081
781.8	1.138
782.0	1.184
782.2	1.240
782.4	1.335
782.6	1.221
782.8	1.349
783.0	1.271
783.2	1.193
783.4	1.215
783.6	1.220
783.8	1.209
784.0	1.237
784.2	1.202
784.4	1.250
784.6	1.334
784.8	1.228
785.0	1.320
785.2	1.189
785.4	1.310
785.6	1.365
785.8	1.413
786.0	1.398
786.2	1.287
786.4	1.203
786.6	1.261
786.8	1.251
787.0	1.262
787.2	1.285
787.4	1.211
787.6	1.354
787.8	1.318
788.0	1.344
788.2	1.351
788.4	1.287
788.6	1.354
788.8	1.473
789.0	1.416
789.2	1.474
789.4	1.449
789.6	1.308
789.8	1.378
790.0	1.436
790.2	1.423
790.4	1.556
790.6	1.481
790.8	1.318
791.0	1.279
791.2	1.225
791.4	1.207
791.6	1.368
791.8	1.387
792.0	1.363
792.2	1.293
792.4	1.277
792.6	1.365
792.8	1.373
793.0	1.347
793.2	1.422
793.4	1.562
793.6	1.758
793.8	1.929
794.0	1.950
794.2	1.753
794.4	1.587
794.6	1.621
794.8	1.535
795.0	1.460
795.2	1.422
795.4	1.275
795.6	1.178
795.8	1.357
796.0	1.374
796.2	1.548
796.4	1.595
796.6	1.530
796.8	1.432
797.0	1.383
797.2	1.373
797.4	1.539
797.6	1.629
797.8	1.615
798.0	1.572
798.2	1.587
798.4	1.802
798.6	1.816
798.8	1.929
799.0	1.968
799.2	1.850
799.4	1.860
799.6	1.885
799.8	1.796
800.0	1.499

