Sample:	'20211010A(EM)
File name:	G-CDs 480.FDS
Run date:	'11:44:06, 05/20/2023
Operator:	Administrator
Comment:	'

Instrument
Model:	F-4700 FL Spectrophotometer
Serial number:	2019-001
ROM Version:	5J24010 00

Instrument parameters
Measurement type:	Wavelength scan
Scan mode:	Emission
Data mode:	Fluorescence
EX WL:	480.0 nm
EM  Start WL:	500.0 nm
EM  End WL:	800.0 nm
Scan speed:	1200 nm/min
Delay:	0.0 s
EX Slit:	5.0 nm
EM Slit:	10.0 nm
PMT Voltage:	500 V
Response:	0.002 s
Corrected spectra:	Off
Shutter control:	On

Processing performed
Savitsky-Golay smoothed
Smoothing order:	3
Number of points:	7
Number of times:	1

Peak integration
Integration method:	Rectangular
Sensitivity:	1
Threshold:	1.000

Peaks
No.	Start(nm)	Apex(nm)	End(nm)	Height(Data)	Valley(nm)	Valley(Data)
1	500.0	535.6	536.4	1419	536.4	1409
2	536.4	537.6	800.0	1420	800.0	2.114

Data points
nm	Data
500.0	449.2
500.2	451.2
500.4	457.9
500.6	466.9
500.8	475.5
501.0	482.0
501.2	486.5
501.4	493.6
501.6	499.5
501.8	504.0
502.0	510.0
502.2	516.7
502.4	524.6
502.6	534.9
502.8	541.0
503.0	545.2
503.2	551.4
503.4	558.0
503.6	565.4
503.8	573.5
504.0	580.3
504.2	586.8
504.4	594.5
504.6	600.6
504.8	607.9
505.0	616.3
505.2	624.6
505.4	632.2
505.6	638.8
505.8	644.3
506.0	650.6
506.2	659.2
506.4	668.4
506.6	676.7
506.8	684.0
507.0	691.2
507.2	696.8
507.4	703.8
507.6	712.1
507.8	719.8
508.0	726.8
508.2	733.2
508.4	739.4
508.6	746.8
508.8	755.1
509.0	764.2
509.2	772.7
509.4	779.2
509.6	788.5
509.8	793.7
510.0	800.4
510.2	808.6
510.4	816.2
510.6	822.1
510.8	830.1
511.0	837.1
511.2	845.3
511.4	853.9
511.6	861.2
511.8	866.4
512.0	872.3
512.2	881.5
512.4	890.7
512.6	898.9
512.8	905.7
513.0	910.5
513.2	917.1
513.4	924.9
513.6	936.2
513.8	944.5
514.0	951.7
514.2	955.9
514.4	961.9
514.6	969.7
514.8	978.9
515.0	985.8
515.2	995.6
515.4	1002
515.6	1010
515.8	1017
516.0	1022
516.2	1027
516.4	1035
516.6	1044
516.8	1051
517.0	1057
517.2	1062
517.4	1072
517.6	1078
517.8	1088
518.0	1095
518.2	1099
518.4	1106
518.6	1115
518.8	1122
519.0	1131
519.2	1137
519.4	1141
519.6	1146
519.8	1153
520.0	1158
520.2	1164
520.4	1166
520.6	1172
520.8	1178
521.0	1187
521.2	1195
521.4	1201
521.6	1205
521.8	1213
522.0	1219
522.2	1224
522.4	1226
522.6	1229
522.8	1232
523.0	1239
523.2	1243
523.4	1250
523.6	1254
523.8	1261
524.0	1269
524.2	1277
524.4	1281
524.6	1284
524.8	1289
525.0	1292
525.2	1295
525.4	1298
525.6	1303
525.8	1305
526.0	1314
526.2	1320
526.4	1323
526.6	1327
526.8	1331
527.0	1331
527.2	1336
527.4	1342
527.6	1343
527.8	1347
528.0	1350
528.2	1352
528.4	1358
528.6	1360
528.8	1362
529.0	1364
529.2	1365
529.4	1369
529.6	1374
529.8	1374
530.0	1377
530.2	1382
530.4	1383
530.6	1385
530.8	1385
531.0	1383
531.2	1388
531.4	1394
531.6	1397
531.8	1402
532.0	1401
532.2	1395
532.4	1394
532.6	1397
532.8	1403
533.0	1413
533.2	1416
533.4	1413
533.6	1410
533.8	1412
534.0	1413
534.2	1415
534.4	1415
534.6	1415
534.8	1413
535.0	1416
535.2	1415
535.4	1417
535.6	1419
535.8	1418
536.0	1414
536.2	1411
536.4	1409
536.6	1412
536.8	1416
537.0	1417
537.2	1419
537.4	1420
537.6	1420
537.8	1419
538.0	1418
538.2	1417
538.4	1416
538.6	1416
538.8	1415
539.0	1413
539.2	1413
539.4	1412
539.6	1412
539.8	1413
540.0	1413
540.2	1411
540.4	1409
540.6	1405
540.8	1403
541.0	1402
541.2	1401
541.4	1401
541.6	1401
541.8	1398
542.0	1399
542.2	1401
542.4	1400
542.6	1397
542.8	1396
543.0	1390
543.2	1388
543.4	1389
543.6	1389
543.8	1389
544.0	1387
544.2	1382
544.4	1379
544.6	1376
544.8	1374
545.0	1372
545.2	1370
545.4	1370
545.6	1369
545.8	1366
546.0	1363
546.2	1359
546.4	1357
546.6	1356
546.8	1354
547.0	1353
547.2	1353
547.4	1351
547.6	1347
547.8	1341
548.0	1336
548.2	1333
548.4	1335
548.6	1333
548.8	1330
549.0	1327
549.2	1323
549.4	1320
549.6	1318
549.8	1315
550.0	1312
550.2	1311
550.4	1307
550.6	1308
550.8	1304
551.0	1302
551.2	1301
551.4	1300
551.6	1295
551.8	1292
552.0	1288
552.2	1284
552.4	1279
552.6	1277
552.8	1274
553.0	1273
553.2	1273
553.4	1272
553.6	1267
553.8	1263
554.0	1258
554.2	1254
554.4	1252
554.6	1252
554.8	1250
555.0	1248
555.2	1244
555.4	1243
555.6	1239
555.8	1234
556.0	1229
556.2	1225
556.4	1221
556.6	1220
556.8	1219
557.0	1215
557.2	1215
557.4	1212
557.6	1206
557.8	1200
558.0	1197
558.2	1194
558.4	1194
558.6	1189
558.8	1184
559.0	1181
559.2	1178
559.4	1175
559.6	1173
559.8	1167
560.0	1164
560.2	1160
560.4	1157
560.6	1156
560.8	1155
561.0	1154
561.2	1151
561.4	1145
561.6	1138
561.8	1131
562.0	1128
562.2	1128
562.4	1127
562.6	1125
562.8	1124
563.0	1121
563.2	1115
563.4	1112
563.6	1108
563.8	1103
564.0	1102
564.2	1100
564.4	1096
564.6	1096
564.8	1095
565.0	1092
565.2	1086
565.4	1082
565.6	1079
565.8	1075
566.0	1074
566.2	1071
566.4	1064
566.6	1064
566.8	1060
567.0	1056
567.2	1055
567.4	1052
567.6	1049
567.8	1048
568.0	1046
568.2	1042
568.4	1041
568.6	1037
568.8	1033
569.0	1030
569.2	1029
569.4	1027
569.6	1024
569.8	1020
570.0	1014
570.2	1011
570.4	1011
570.6	1012
570.8	1009
571.0	1007
571.2	1002
571.4	997.4
571.6	995.5
571.8	993.0
572.0	992.0
572.2	991.3
572.4	988.0
572.6	984.7
572.8	981.8
573.0	976.5
573.2	975.2
573.4	971.8
573.6	970.7
573.8	968.4
574.0	965.9
574.2	962.4
574.4	962.0
574.6	960.8
574.8	959.2
575.0	956.4
575.2	954.9
575.4	951.9
575.6	951.1
575.8	949.0
576.0	947.8
576.2	946.9
576.4	945.2
576.6	942.4
576.8	940.5
577.0	937.7
577.2	934.3
577.4	931.8
577.6	930.1
577.8	930.3
578.0	929.8
578.2	928.3
578.4	924.0
578.6	920.4
578.8	919.0
579.0	917.6
579.2	915.5
579.4	916.3
579.6	917.8
579.8	916.1
580.0	915.7
580.2	913.8
580.4	912.4
580.6	910.5
580.8	909.9
581.0	907.2
581.2	906.0
581.4	902.7
581.6	900.4
581.8	898.2
582.0	898.8
582.2	900.8
582.4	902.4
582.6	899.1
582.8	893.7
583.0	891.4
583.2	890.9
583.4	889.6
583.6	890.0
583.8	886.0
584.0	883.9
584.2	884.3
584.4	883.6
584.6	884.8
584.8	884.1
585.0	880.6
585.2	880.6
585.4	880.7
585.6	878.2
585.8	879.7
586.0	878.2
586.2	875.0
586.4	874.1
586.6	872.8
586.8	868.5
587.0	869.0
587.2	871.3
587.4	871.0
587.6	872.2
587.8	869.3
588.0	863.1
588.2	858.4
588.4	859.2
588.6	858.5
588.8	861.0
589.0	862.1
589.2	860.3
589.4	855.4
589.6	853.2
589.8	851.2
590.0	851.4
590.2	851.6
590.4	850.1
590.6	847.9
590.8	847.2
591.0	847.8
591.2	845.1
591.4	844.2
591.6	842.0
591.8	840.0
592.0	839.6
592.2	838.5
592.4	835.1
592.6	836.5
592.8	836.1
593.0	835.1
593.2	834.3
593.4	830.9
593.6	828.6
593.8	826.8
594.0	823.7
594.2	822.7
594.4	820.7
594.6	818.0
594.8	815.9
595.0	813.9
595.2	813.9
595.4	814.5
595.6	811.5
595.8	808.4
596.0	804.1
596.2	801.8
596.4	800.3
596.6	797.9
596.8	794.5
597.0	788.5
597.2	786.6
597.4	782.8
597.6	779.0
597.8	777.1
598.0	775.9
598.2	773.7
598.4	774.6
598.6	773.2
598.8	770.0
599.0	765.7
599.2	760.4
599.4	755.7
599.6	750.3
599.8	749.6
600.0	748.1
600.2	745.8
600.4	744.0
600.6	742.1
600.8	740.4
601.0	740.2
601.2	737.8
601.4	733.7
601.6	727.8
601.8	723.7
602.0	721.2
602.2	718.1
602.4	714.8
602.6	710.2
602.8	704.7
603.0	702.9
603.2	703.5
603.4	700.1
603.6	697.0
603.8	692.5
604.0	686.4
604.2	682.6
604.4	681.0
604.6	677.0
604.8	675.0
605.0	673.5
605.2	669.6
605.4	666.0
605.6	661.9
605.8	656.2
606.0	652.8
606.2	651.1
606.4	647.9
606.6	645.8
606.8	642.9
607.0	637.0
607.2	633.9
607.4	632.2
607.6	629.2
607.8	627.8
608.0	625.4
608.2	620.7
608.4	615.9
608.6	611.3
608.8	607.0
609.0	603.0
609.2	600.1
609.4	598.4
609.6	595.4
609.8	590.2
610.0	586.0
610.2	580.6
610.4	577.4
610.6	575.2
610.8	574.2
611.0	571.4
611.2	570.5
611.4	568.4
611.6	564.0
611.8	556.7
612.0	551.6
612.2	546.9
612.4	544.3
612.6	542.7
612.8	539.0
613.0	536.1
613.2	533.5
613.4	531.5
613.6	527.8
613.8	523.4
614.0	519.5
614.2	518.0
614.4	513.8
614.6	512.5
614.8	508.2
615.0	505.6
615.2	503.9
615.4	500.3
615.6	497.5
615.8	495.2
616.0	491.2
616.2	488.3
616.4	485.0
616.6	480.0
616.8	478.7
617.0	475.3
617.2	471.4
617.4	469.4
617.6	467.2
617.8	464.9
618.0	463.5
618.2	460.9
618.4	457.3
618.6	456.1
618.8	453.5
619.0	451.8
619.2	450.4
619.4	446.8
619.6	443.7
619.8	439.4
620.0	435.5
620.2	433.6
620.4	432.0
620.6	429.6
620.8	429.0
621.0	426.3
621.2	422.6
621.4	418.8
621.6	414.2
621.8	412.4
622.0	411.0
622.2	410.8
622.4	408.0
622.6	406.3
622.8	404.4
623.0	402.5
623.2	399.6
623.4	398.4
623.6	395.4
623.8	394.5
624.0	394.6
624.2	391.3
624.4	387.5
624.6	384.9
624.8	381.4
625.0	379.3
625.2	378.8
625.4	377.8
625.6	377.1
625.8	376.6
626.0	373.5
626.2	370.0
626.4	366.6
626.6	364.5
626.8	364.8
627.0	365.5
627.2	364.3
627.4	362.3
627.6	360.2
627.8	357.6
628.0	355.7
628.2	352.7
628.4	350.7
628.6	349.0
628.8	347.9
629.0	346.6
629.2	345.5
629.4	344.3
629.6	343.8
629.8	342.4
630.0	339.8
630.2	336.5
630.4	333.6
630.6	331.0
630.8	329.0
631.0	329.2
631.2	329.3
631.4	329.4
631.6	328.9
631.8	326.3
632.0	324.3
632.2	321.8
632.4	319.6
632.6	318.4
632.8	319.0
633.0	316.9
633.2	315.3
633.4	313.1
633.6	312.3
633.8	312.6
634.0	312.2
634.2	309.6
634.4	307.9
634.6	307.5
634.8	306.2
635.0	307.2
635.2	306.0
635.4	305.2
635.6	304.0
635.8	302.2
636.0	299.5
636.2	297.9
636.4	296.8
636.6	296.8
636.8	295.3
637.0	293.9
637.2	293.7
637.4	291.2
637.6	291.0
637.8	290.3
638.0	289.2
638.2	288.6
638.4	288.1
638.6	285.4
638.8	285.0
639.0	284.0
639.2	282.3
639.4	281.5
639.6	280.4
639.8	278.9
640.0	279.1
640.2	279.1
640.4	277.2
640.6	275.9
640.8	275.8
641.0	274.7
641.2	274.3
641.4	273.4
641.6	272.3
641.8	270.3
642.0	269.4
642.2	267.6
642.4	267.0
642.6	266.2
642.8	265.8
643.0	264.8
643.2	263.8
643.4	262.4
643.6	261.9
643.8	261.7
644.0	261.5
644.2	260.2
644.4	260.8
644.6	259.0
644.8	257.2
645.0	255.1
645.2	254.9
645.4	253.0
645.6	253.4
645.8	252.5
646.0	252.8
646.2	251.4
646.4	251.5
646.6	249.3
646.8	247.1
647.0	244.7
647.2	244.1
647.4	242.4
647.6	242.0
647.8	240.8
648.0	240.4
648.2	239.8
648.4	239.7
648.6	238.3
648.8	237.5
649.0	235.3
649.2	234.7
649.4	233.9
649.6	233.2
649.8	231.6
650.0	229.9
650.2	228.5
650.4	228.8
650.6	228.5
650.8	227.4
651.0	226.2
651.2	223.2
651.4	221.7
651.6	222.1
651.8	221.6
652.0	221.0
652.2	220.4
652.4	218.0
652.6	215.6
652.8	213.5
653.0	211.1
653.2	210.1
653.4	209.5
653.6	209.4
653.8	208.9
654.0	207.8
654.2	207.3
654.4	206.0
654.6	204.4
654.8	202.8
655.0	201.5
655.2	200.7
655.4	199.3
655.6	197.5
655.8	195.9
656.0	195.1
656.2	194.2
656.4	193.1
656.6	191.4
656.8	190.2
657.0	189.2
657.2	190.0
657.4	189.4
657.6	188.0
657.8	186.6
658.0	185.4
658.2	183.2
658.4	181.7
658.6	179.2
658.8	178.9
659.0	178.4
659.2	178.1
659.4	176.5
659.6	175.6
659.8	173.7
660.0	173.9
660.2	173.0
660.4	171.5
660.6	169.5
660.8	168.0
661.0	165.5
661.2	163.7
661.4	162.6
661.6	162.3
661.8	162.4
662.0	162.4
662.2	161.3
662.4	159.1
662.6	157.7
662.8	156.9
663.0	155.3
663.2	154.7
663.4	152.9
663.6	151.6
663.8	151.4
664.0	151.7
664.2	150.7
664.4	149.7
664.6	147.0
664.8	145.4
665.0	143.5
665.2	142.2
665.4	141.7
665.6	140.4
665.8	139.7
666.0	138.4
666.2	137.2
666.4	136.9
666.6	135.8
666.8	134.9
667.0	134.8
667.2	133.5
667.4	133.0
667.6	132.2
667.8	130.3
668.0	130.4
668.2	128.6
668.4	127.3
668.6	126.0
668.8	124.6
669.0	124.2
669.2	124.0
669.4	122.3
669.6	122.0
669.8	120.9
670.0	120.2
670.2	119.9
670.4	119.1
670.6	117.6
670.8	117.0
671.0	114.9
671.2	113.3
671.4	112.2
671.6	112.3
671.8	111.8
672.0	111.4
672.2	109.6
672.4	108.1
672.6	107.3
672.8	107.3
673.0	106.3
673.2	105.4
673.4	104.1
673.6	103.5
673.8	102.9
674.0	101.4
674.2	100.1
674.4	99.75
674.6	99.18
674.8	98.47
675.0	98.30
675.2	97.86
675.4	97.49
675.6	97.71
675.8	96.87
676.0	95.24
676.2	94.27
676.4	93.34
676.6	91.67
676.8	90.90
677.0	90.42
677.2	89.65
677.4	88.99
677.6	88.73
677.8	88.77
678.0	88.84
678.2	88.03
678.4	86.26
678.6	84.75
678.8	83.81
679.0	84.58
679.2	84.70
679.4	83.94
679.6	82.07
679.8	81.53
680.0	80.62
680.2	80.80
680.4	80.59
680.6	80.34
680.8	78.74
681.0	78.35
681.2	77.37
681.4	76.59
681.6	76.40
681.8	76.37
682.0	75.86
682.2	75.44
682.4	74.48
682.6	73.76
682.8	73.11
683.0	72.82
683.2	72.27
683.4	71.83
683.6	71.00
683.8	70.55
684.0	70.18
684.2	70.40
684.4	70.10
684.6	69.87
684.8	69.30
685.0	68.48
685.2	67.52
685.4	66.69
685.6	65.85
685.8	65.30
686.0	65.21
686.2	65.30
686.4	65.75
686.6	65.97
686.8	65.45
687.0	64.25
687.2	62.93
687.4	62.02
687.6	61.59
687.8	61.43
688.0	60.91
688.2	60.54
688.4	60.11
688.6	59.65
688.8	59.31
689.0	59.46
689.2	58.96
689.4	58.95
689.6	58.16
689.8	57.29
690.0	56.68
690.2	56.22
690.4	56.31
690.6	56.80
690.8	56.13
691.0	55.99
691.2	55.43
691.4	54.63
691.6	54.49
691.8	54.67
692.0	54.65
692.2	54.69
692.4	54.10
692.6	53.78
692.8	52.96
693.0	52.65
693.2	52.39
693.4	51.94
693.6	51.64
693.8	51.55
694.0	51.56
694.2	51.34
694.4	50.77
694.6	50.45
694.8	50.19
695.0	49.77
695.2	49.62
695.4	49.32
695.6	48.75
695.8	48.53
696.0	47.94
696.2	47.74
696.4	47.86
696.6	47.70
696.8	47.38
697.0	47.31
697.2	46.73
697.4	46.24
697.6	46.41
697.8	45.80
698.0	45.79
698.2	45.60
698.4	45.14
698.6	45.13
698.8	45.57
699.0	45.79
699.2	46.34
699.4	45.53
699.6	44.84
699.8	43.77
700.0	43.59
700.2	43.51
700.4	43.64
700.6	43.37
700.8	43.79
701.0	43.48
701.2	43.57
701.4	42.99
701.6	42.51
701.8	42.43
702.0	42.38
702.2	42.41
702.4	42.39
702.6	42.18
702.8	42.49
703.0	42.93
703.2	42.92
703.4	42.53
703.6	41.97
703.8	41.06
704.0	40.44
704.2	40.05
704.4	40.12
704.6	39.95
704.8	39.76
705.0	39.91
705.2	39.31
705.4	38.83
705.6	38.89
705.8	38.64
706.0	38.31
706.2	38.61
706.4	38.03
706.6	38.09
706.8	38.13
707.0	38.24
707.2	37.92
707.4	37.28
707.6	36.86
707.8	36.87
708.0	36.44
708.2	36.59
708.4	37.03
708.6	36.79
708.8	37.14
709.0	36.81
709.2	36.08
709.4	35.41
709.6	35.31
709.8	35.00
710.0	35.12
710.2	34.56
710.4	34.10
710.6	33.83
710.8	33.80
711.0	34.07
711.2	34.15
711.4	34.30
711.6	33.83
711.8	33.44
712.0	32.71
712.2	32.10
712.4	32.06
712.6	32.57
712.8	32.36
713.0	32.41
713.2	31.99
713.4	31.59
713.6	31.58
713.8	31.45
714.0	30.82
714.2	30.72
714.4	30.82
714.6	31.26
714.8	31.31
715.0	31.50
715.2	31.03
715.4	30.70
715.6	30.12
715.8	29.49
716.0	29.07
716.2	29.12
716.4	29.41
716.6	29.15
716.8	28.91
717.0	28.40
717.2	28.34
717.4	28.07
717.6	28.34
717.8	27.73
718.0	27.66
718.2	27.40
718.4	27.24
718.6	27.06
718.8	27.22
719.0	27.10
719.2	26.92
719.4	27.08
719.6	26.87
719.8	26.70
720.0	26.03
720.2	25.88
720.4	25.64
720.6	26.14
720.8	25.92
721.0	25.84
721.2	25.44
721.4	25.00
721.6	24.58
721.8	24.20
722.0	23.80
722.2	23.67
722.4	23.96
722.6	23.84
722.8	23.87
723.0	23.59
723.2	23.19
723.4	22.41
723.6	22.24
723.8	22.00
724.0	22.48
724.2	22.69
724.4	22.43
724.6	21.61
724.8	21.48
725.0	21.18
725.2	21.56
725.4	21.58
725.6	21.25
725.8	20.93
726.0	20.77
726.2	20.46
726.4	20.59
726.6	20.58
726.8	20.25
727.0	20.28
727.2	20.14
727.4	20.02
727.6	20.08
727.8	19.93
728.0	19.56
728.2	19.47
728.4	19.29
728.6	19.14
728.8	19.18
729.0	18.70
729.2	18.39
729.4	18.42
729.6	18.29
729.8	18.48
730.0	18.60
730.2	18.16
730.4	17.81
730.6	17.65
730.8	17.21
731.0	17.20
731.2	17.21
731.4	17.26
731.6	17.28
731.8	17.34
732.0	17.04
732.2	16.77
732.4	16.71
732.6	16.61
732.8	16.67
733.0	16.48
733.2	16.06
733.4	15.82
733.6	15.61
733.8	15.34
734.0	15.34
734.2	15.18
734.4	15.12
734.6	15.10
734.8	14.82
735.0	14.73
735.2	14.44
735.4	14.46
735.6	14.14
735.8	13.75
736.0	13.77
736.2	14.05
736.4	13.96
736.6	13.86
736.8	13.40
737.0	13.32
737.2	13.21
737.4	13.23
737.6	12.99
737.8	12.54
738.0	12.59
738.2	12.68
738.4	12.44
738.6	12.72
738.8	12.76
739.0	12.59
739.2	12.42
739.4	12.15
739.6	11.82
739.8	11.76
740.0	11.85
740.2	11.65
740.4	11.53
740.6	11.64
740.8	11.72
741.0	11.77
741.2	11.70
741.4	11.37
741.6	11.39
741.8	11.18
742.0	10.85
742.2	10.86
742.4	10.62
742.6	10.63
742.8	10.58
743.0	10.44
743.2	10.40
743.4	10.55
743.6	10.55
743.8	10.36
744.0	10.02
744.2	9.873
744.4	9.852
744.6	10.03
744.8	10.10
745.0	9.610
745.2	9.534
745.4	9.511
745.6	9.388
745.8	9.780
746.0	9.710
746.2	9.291
746.4	9.232
746.6	9.248
746.8	8.859
747.0	8.867
747.2	8.728
747.4	8.533
747.6	8.503
747.8	8.868
748.0	8.743
748.2	8.783
748.4	8.745
748.6	8.473
748.8	8.287
749.0	8.576
749.2	8.449
749.4	8.379
749.6	8.166
749.8	8.037
750.0	7.905
750.2	7.975
750.4	8.010
750.6	7.927
750.8	7.743
751.0	7.749
751.2	7.590
751.4	7.434
751.6	7.434
751.8	7.571
752.0	7.688
752.2	7.782
752.4	7.586
752.6	7.380
752.8	7.193
753.0	7.263
753.2	7.184
753.4	7.045
753.6	6.987
753.8	6.862
754.0	6.817
754.2	6.782
754.4	6.614
754.6	6.700
754.8	6.869
755.0	6.825
755.2	6.800
755.4	6.708
755.6	6.670
755.8	6.617
756.0	6.500
756.2	6.547
756.4	6.486
756.6	6.325
756.8	6.349
757.0	6.114
757.2	6.060
757.4	6.135
757.6	6.122
757.8	6.028
758.0	5.932
758.2	5.717
758.4	5.796
758.6	6.054
758.8	6.124
759.0	6.041
759.2	5.741
759.4	5.525
759.6	5.336
759.8	5.388
760.0	5.374
760.2	5.383
760.4	5.626
760.6	5.858
760.8	5.770
761.0	5.646
761.2	5.302
761.4	5.170
761.6	5.463
761.8	5.553
762.0	5.519
762.2	5.201
762.4	4.818
762.6	4.727
762.8	4.761
763.0	4.823
763.2	4.960
763.4	4.834
763.6	4.878
763.8	4.741
764.0	4.622
764.2	4.588
764.4	4.573
764.6	4.587
764.8	4.718
765.0	4.520
765.2	4.504
765.4	4.319
765.6	4.346
765.8	4.304
766.0	4.248
766.2	4.227
766.4	4.366
766.6	4.338
766.8	4.443
767.0	4.365
767.2	4.237
767.4	4.267
767.6	4.393
767.8	4.366
768.0	4.234
768.2	4.173
768.4	3.996
768.6	3.977
768.8	4.060
769.0	4.048
769.2	4.062
769.4	4.141
769.6	4.130
769.8	4.194
770.0	4.154
770.2	4.075
770.4	3.796
770.6	3.567
770.8	3.522
771.0	3.698
771.2	3.905
771.4	4.106
771.6	3.877
771.8	3.704
772.0	3.492
772.2	3.501
772.4	3.399
772.6	3.375
772.8	3.394
773.0	3.686
773.2	3.789
773.4	3.895
773.6	3.675
773.8	3.398
774.0	3.261
774.2	3.191
774.4	3.235
774.6	3.374
774.8	3.423
775.0	3.458
775.2	3.559
775.4	3.389
775.6	3.324
775.8	3.323
776.0	3.309
776.2	3.341
776.4	3.352
776.6	3.245
776.8	3.125
777.0	3.140
777.2	2.994
777.4	2.994
777.6	3.089
777.8	3.206
778.0	3.055
778.2	3.103
778.4	2.956
778.6	2.960
778.8	2.995
779.0	3.053
779.2	2.916
779.4	2.911
779.6	2.929
779.8	2.849
780.0	2.750
780.2	2.897
780.4	2.986
780.6	2.996
780.8	2.983
781.0	2.803
781.2	2.772
781.4	2.794
781.6	2.848
781.8	2.882
782.0	2.751
782.2	2.686
782.4	2.710
782.6	2.647
782.8	2.719
783.0	2.861
783.2	2.757
783.4	2.793
783.6	2.819
783.8	2.729
784.0	2.714
784.2	2.708
784.4	2.503
784.6	2.502
784.8	2.661
785.0	2.672
785.2	2.769
785.4	2.703
785.6	2.621
785.8	2.498
786.0	2.492
786.2	2.484
786.4	2.512
786.6	2.413
786.8	2.358
787.0	2.405
787.2	2.436
787.4	2.545
787.6	2.621
787.8	2.559
788.0	2.378
788.2	2.390
788.4	2.380
788.6	2.352
788.8	2.501
789.0	2.536
789.2	2.462
789.4	2.264
789.6	2.153
789.8	2.060
790.0	2.093
790.2	2.257
790.4	2.361
790.6	2.503
790.8	2.590
791.0	2.617
791.2	2.488
791.4	2.390
791.6	2.245
791.8	2.274
792.0	2.211
792.2	2.256
792.4	2.380
792.6	2.322
792.8	2.325
793.0	2.358
793.2	2.314
793.4	2.330
793.6	2.373
793.8	2.265
794.0	2.262
794.2	2.203
794.4	2.281
794.6	2.348
794.8	2.342
795.0	2.315
795.2	2.256
795.4	2.128
795.6	2.148
795.8	2.251
796.0	2.211
796.2	2.160
796.4	2.104
796.6	2.049
796.8	1.993
797.0	2.076
797.2	2.002
797.4	1.994
797.6	2.016
797.8	1.980
798.0	2.030
798.2	2.022
798.4	2.008
798.6	2.002
798.8	1.956
799.0	1.955
799.2	1.943
799.4	1.934
799.6	2.007
799.8	2.079
800.0	2.114

