Sample:	'20211010A(EX)
File name:	G-CDs EX.FDS
Run date:	'12:23:35, 05/20/2023
Operator:	Administrator
Comment:	'

Instrument
Model:	F-4700 FL Spectrophotometer
Serial number:	2019-001
ROM Version:	5J24010 00

Instrument parameters
Measurement type:	Wavelength scan
Scan mode:	Excitation
Data mode:	Fluorescence
EM WL:	535.0 nm
EX  Start WL:	270.0 nm
EX  End WL:	500.0 nm
Scan speed:	1200 nm/min
Delay:	0.0 s
EX Slit:	5.0 nm
EM Slit:	10.0 nm
PMT Voltage:	470 V
Response:	0.002 s
Corrected spectra:	Off
Shutter control:	On

Processing performed
Savitsky-Golay smoothed
Smoothing order:	3
Number of points:	7
Number of times:	1

Peak integration
Integration method:	Rectangular
Sensitivity:	1
Threshold:	1.000

Peaks
No.	Start(nm)	Apex(nm)	End(nm)	Height(Data)	Valley(nm)	Valley(Data)
1	270.0	270.2	290.6	132.7	290.6	29.90
2	290.6	291.2	294.2	31.33	294.2	26.40
3	294.2	296.4	297.4	28.06	297.4	25.58
4	297.4	300.6	301.6	28.69	301.6	27.37
5	301.6	377.2	377.8	6626	377.8	6605
6	377.8	379.8	500.0	6630	500.0	732.1

Data points
nm	Data
270.0	131.3
270.2	132.7
270.4	129.8
270.6	124.7
270.8	119.9
271.0	116.8
271.2	112.3
271.4	112.4
271.6	110.8
271.8	107.1
272.0	103.1
272.2	99.56
272.4	98.53
272.6	98.41
272.8	98.42
273.0	98.43
273.2	94.95
273.4	90.95
273.6	90.36
273.8	87.84
274.0	84.59
274.2	83.52
274.4	80.01
274.6	75.87
274.8	74.45
275.0	73.63
275.2	73.57
275.4	72.68
275.6	72.53
275.8	70.71
276.0	69.89
276.2	69.07
276.4	70.45
276.6	68.97
276.8	67.41
277.0	63.99
277.2	62.04
277.4	57.83
277.6	57.58
277.8	57.17
278.0	57.39
278.2	56.95
278.4	57.52
278.6	56.12
278.8	54.88
279.0	53.95
279.2	53.96
279.4	52.34
279.6	51.20
279.8	49.93
280.0	47.43
280.2	47.13
280.4	47.13
280.6	47.65
280.8	48.33
281.0	48.94
281.2	49.15
281.4	48.14
281.6	46.31
281.8	43.74
282.0	42.52
282.2	42.75
282.4	43.50
282.6	43.50
282.8	44.58
283.0	44.01
283.2	43.29
283.4	41.99
283.6	41.05
283.8	39.76
284.0	39.17
284.2	40.54
284.4	40.76
284.6	41.88
284.8	42.33
285.0	40.84
285.2	38.24
285.4	37.05
285.6	37.37
285.8	39.20
286.0	40.05
286.2	39.97
286.4	38.60
286.6	36.37
286.8	35.84
287.0	35.73
287.2	34.59
287.4	34.92
287.6	34.91
287.8	33.71
288.0	33.40
288.2	32.84
288.4	32.29
288.6	31.99
288.8	32.38
289.0	31.57
289.2	32.75
289.4	32.89
289.6	33.47
289.8	31.58
290.0	31.57
290.2	30.10
290.4	30.21
290.6	29.90
290.8	30.40
291.0	30.29
291.2	31.33
291.4	30.57
291.6	30.84
291.8	31.05
292.0	30.71
292.2	29.84
292.4	28.41
292.6	27.15
292.8	26.66
293.0	26.64
293.2	27.25
293.4	27.43
293.6	27.27
293.8	27.25
294.0	26.84
294.2	26.40
294.4	26.82
294.6	26.66
294.8	26.43
295.0	26.83
295.2	27.78
295.4	27.78
295.6	27.50
295.8	27.42
296.0	27.49
296.2	27.36
296.4	28.06
296.6	27.42
296.8	26.45
297.0	26.54
297.2	26.35
297.4	25.58
297.6	26.49
297.8	26.76
298.0	26.53
298.2	26.71
298.4	26.14
298.6	26.00
298.8	26.64
299.0	27.21
299.2	26.96
299.4	27.81
299.6	27.21
299.8	26.85
300.0	27.36
300.2	27.81
300.4	27.84
300.6	28.69
300.8	28.30
301.0	27.75
301.2	27.59
301.4	27.42
301.6	27.37
301.8	28.21
302.0	28.77
302.2	30.34
302.4	30.54
302.6	31.12
302.8	30.95
303.0	30.96
303.2	30.07
303.4	29.95
303.6	30.17
303.8	31.39
304.0	31.68
304.2	32.54
304.4	32.21
304.6	32.04
304.8	32.79
305.0	33.38
305.2	33.22
305.4	33.79
305.6	34.41
305.8	35.16
306.0	36.35
306.2	36.92
306.4	36.74
306.6	37.88
306.8	39.38
307.0	40.11
307.2	41.35
307.4	42.21
307.6	42.89
307.8	44.62
308.0	46.12
308.2	47.02
308.4	48.77
308.6	50.73
308.8	51.30
309.0	52.42
309.2	53.85
309.4	54.96
309.6	57.46
309.8	60.21
310.0	60.77
310.2	63.31
310.4	65.68
310.6	67.35
310.8	70.05
311.0	73.41
311.2	75.56
311.4	78.87
311.6	81.22
311.8	82.91
312.0	86.14
312.2	91.51
312.4	97.02
312.6	102.1
312.8	105.7
313.0	109.0
313.2	113.3
313.4	118.1
313.6	123.9
313.8	129.8
314.0	137.0
314.2	144.6
314.4	153.3
314.6	160.2
314.8	167.1
315.0	172.6
315.2	180.6
315.4	189.6
315.6	199.4
315.8	209.2
316.0	217.0
316.2	224.1
316.4	235.3
316.6	249.7
316.8	263.8
317.0	278.3
317.2	291.0
317.4	302.2
317.6	315.8
317.8	327.5
318.0	338.9
318.2	352.8
318.4	367.6
318.6	382.9
318.8	399.0
319.0	414.9
319.2	433.9
319.4	453.0
319.6	469.6
319.8	484.0
320.0	497.1
320.2	510.1
320.4	526.8
320.6	546.2
320.8	568.1
321.0	589.1
321.2	609.1
321.4	627.2
321.6	643.6
321.8	660.3
322.0	682.3
322.2	701.8
322.4	720.5
322.6	743.2
322.8	761.3
323.0	780.2
323.2	805.2
323.4	825.8
323.6	840.9
323.8	859.1
324.0	876.8
324.2	893.9
324.4	920.9
324.6	942.9
324.8	963.8
325.0	987.3
325.2	1006
325.4	1020
325.6	1037
325.8	1053
326.0	1072
326.2	1096
326.4	1115
326.6	1133
326.8	1146
327.0	1163
327.2	1181
327.4	1203
327.6	1220
327.8	1238
328.0	1252
328.2	1270
328.4	1289
328.6	1312
328.8	1328
329.0	1349
329.2	1365
329.4	1385
329.6	1403
329.8	1423
330.0	1434
330.2	1452
330.4	1463
330.6	1480
330.8	1496
331.0	1513
331.2	1529
331.4	1545
331.6	1558
331.8	1572
332.0	1586
332.2	1602
332.4	1619
332.6	1636
332.8	1652
333.0	1666
333.2	1683
333.4	1698
333.6	1717
333.8	1732
334.0	1746
334.2	1763
334.4	1779
334.6	1794
334.8	1811
335.0	1821
335.2	1832
335.4	1848
335.6	1868
335.8	1885
336.0	1906
336.2	1918
336.4	1932
336.6	1945
336.8	1964
337.0	1975
337.2	1996
337.4	2012
337.6	2028
337.8	2041
338.0	2062
338.2	2079
338.4	2102
338.6	2120
338.8	2129
339.0	2144
339.2	2169
339.4	2192
339.6	2212
339.8	2223
340.0	2234
340.2	2253
340.4	2276
340.6	2302
340.8	2326
341.0	2349
341.2	2371
341.4	2389
341.6	2405
341.8	2422
342.0	2433
342.2	2447
342.4	2462
342.6	2477
342.8	2500
343.0	2526
343.2	2554
343.4	2583
343.6	2609
343.8	2629
344.0	2658
344.2	2679
344.4	2700
344.6	2729
344.8	2756
345.0	2781
345.2	2811
345.4	2832
345.6	2850
345.8	2872
346.0	2896
346.2	2915
346.4	2939
346.6	2961
346.8	2988
347.0	3011
347.2	3040
347.4	3071
347.6	3100
347.8	3126
348.0	3157
348.2	3180
348.4	3207
348.6	3241
348.8	3266
349.0	3297
349.2	3338
349.4	3373
349.6	3407
349.8	3434
350.0	3453
350.2	3474
350.4	3506
350.6	3535
350.8	3561
351.0	3588
351.2	3625
351.4	3660
351.6	3697
351.8	3726
352.0	3751
352.2	3778
352.4	3809
352.6	3839
352.8	3871
353.0	3904
353.2	3935
353.4	3962
353.6	3985
353.8	4013
354.0	4048
354.2	4077
354.4	4105
354.6	4132
354.8	4161
355.0	4197
355.2	4241
355.4	4274
355.6	4311
355.8	4346
356.0	4379
356.2	4408
356.4	4438
356.6	4461
356.8	4487
357.0	4516
357.2	4552
357.4	4584
357.6	4620
357.8	4650
358.0	4690
358.2	4724
358.4	4757
358.6	4792
358.8	4823
359.0	4853
359.2	4900
359.4	4935
359.6	4962
359.8	4993
360.0	5021
360.2	5051
360.4	5085
360.6	5115
360.8	5140
361.0	5170
361.2	5205
361.4	5239
361.6	5272
361.8	5307
362.0	5348
362.2	5381
362.4	5413
362.6	5442
362.8	5474
363.0	5505
363.2	5544
363.4	5570
363.6	5594
363.8	5619
364.0	5643
364.2	5673
364.4	5703
364.6	5731
364.8	5758
365.0	5782
365.2	5808
365.4	5839
365.6	5864
365.8	5886
366.0	5906
366.2	5934
366.4	5969
366.6	6003
366.8	6034
367.0	6053
367.2	6067
367.4	6090
367.6	6112
367.8	6135
368.0	6159
368.2	6179
368.4	6202
368.6	6227
368.8	6248
369.0	6261
369.2	6272
369.4	6282
369.6	6307
369.8	6324
370.0	6343
370.2	6353
370.4	6363
370.6	6386
370.8	6416
371.0	6431
371.2	6447
371.4	6456
371.6	6463
371.8	6483
372.0	6497
372.2	6499
372.4	6508
372.6	6516
372.8	6521
373.0	6528
373.2	6532
373.4	6534
373.6	6543
373.8	6553
374.0	6565
374.2	6563
374.4	6567
374.6	6574
374.8	6577
375.0	6586
375.2	6595
375.4	6597
375.6	6598
375.8	6599
376.0	6595
376.2	6596
376.4	6598
376.6	6605
376.8	6615
377.0	6621
377.2	6626
377.4	6619
377.6	6613
377.8	6605
378.0	6609
378.2	6608
378.4	6612
378.6	6611
378.8	6617
379.0	6622
379.2	6629
379.4	6629
379.6	6628
379.8	6630
380.0	6627
380.2	6618
380.4	6613
380.6	6605
380.8	6610
381.0	6620
381.2	6618
381.4	6609
381.6	6597
381.8	6594
382.0	6598
382.2	6610
382.4	6615
382.6	6609
382.8	6593
383.0	6580
383.2	6560
383.4	6554
383.6	6536
383.8	6524
384.0	6513
384.2	6501
384.4	6488
384.6	6475
384.8	6452
385.0	6438
385.2	6426
385.4	6419
385.6	6407
385.8	6402
386.0	6386
386.2	6367
386.4	6345
386.6	6327
386.8	6312
387.0	6305
387.2	6286
387.4	6267
387.6	6239
387.8	6208
388.0	6186
388.2	6165
388.4	6140
388.6	6123
388.8	6096
389.0	6066
389.2	6034
389.4	6005
389.6	5977
389.8	5958
390.0	5940
390.2	5914
390.4	5878
390.6	5840
390.8	5805
391.0	5780
391.2	5758
391.4	5732
391.6	5700
391.8	5675
392.0	5654
392.2	5636
392.4	5613
392.6	5585
392.8	5550
393.0	5526
393.2	5498
393.4	5472
393.6	5443
393.8	5412
394.0	5382
394.2	5359
394.4	5331
394.6	5305
394.8	5278
395.0	5258
395.2	5242
395.4	5226
395.6	5205
395.8	5186
396.0	5169
396.2	5148
396.4	5132
396.6	5110
396.8	5096
397.0	5079
397.2	5068
397.4	5053
397.6	5041
397.8	5026
398.0	5015
398.2	4993
398.4	4977
398.6	4965
398.8	4952
399.0	4933
399.2	4915
399.4	4890
399.6	4872
399.8	4860
400.0	4856
400.2	4849
400.4	4842
400.6	4827
400.8	4814
401.0	4801
401.2	4789
401.4	4781
401.6	4773
401.8	4761
402.0	4747
402.2	4734
402.4	4719
402.6	4709
402.8	4704
403.0	4697
403.2	4694
403.4	4687
403.6	4679
403.8	4662
404.0	4648
404.2	4632
404.4	4628
404.6	4626
404.8	4624
405.0	4617
405.2	4606
405.4	4593
405.6	4582
405.8	4567
406.0	4558
406.2	4554
406.4	4549
406.6	4548
406.8	4537
407.0	4526
407.2	4518
407.4	4514
407.6	4506
407.8	4498
408.0	4484
408.2	4481
408.4	4479
408.6	4479
408.8	4482
409.0	4475
409.2	4462
409.4	4450
409.6	4435
409.8	4422
410.0	4424
410.2	4417
410.4	4412
410.6	4402
410.8	4390
411.0	4378
411.2	4366
411.4	4361
411.6	4355
411.8	4346
412.0	4342
412.2	4336
412.4	4334
412.6	4334
412.8	4324
413.0	4320
413.2	4314
413.4	4304
413.6	4299
413.8	4289
414.0	4277
414.2	4269
414.4	4257
414.6	4243
414.8	4232
415.0	4223
415.2	4219
415.4	4215
415.6	4214
415.8	4208
416.0	4201
416.2	4192
416.4	4182
416.6	4177
416.8	4169
417.0	4156
417.2	4150
417.4	4139
417.6	4130
417.8	4124
418.0	4114
418.2	4108
418.4	4104
418.6	4094
418.8	4086
419.0	4079
419.2	4068
419.4	4056
419.6	4045
419.8	4038
420.0	4032
420.2	4033
420.4	4030
420.6	4015
420.8	4005
421.0	3996
421.2	3985
421.4	3984
421.6	3981
421.8	3966
422.0	3959
422.2	3952
422.4	3947
422.6	3940
422.8	3926
423.0	3913
423.2	3906
423.4	3903
423.6	3905
423.8	3901
424.0	3891
424.2	3885
424.4	3872
424.6	3862
424.8	3853
425.0	3847
425.2	3839
425.4	3832
425.6	3821
425.8	3807
426.0	3796
426.2	3793
426.4	3790
426.6	3788
426.8	3782
427.0	3776
427.2	3769
427.4	3759
427.6	3751
427.8	3739
428.0	3725
428.2	3718
428.4	3714
428.6	3712
428.8	3708
429.0	3697
429.2	3686
429.4	3674
429.6	3672
429.8	3668
430.0	3660
430.2	3648
430.4	3639
430.6	3632
430.8	3631
431.0	3629
431.2	3620
431.4	3607
431.6	3593
431.8	3586
432.0	3583
432.2	3578
432.4	3574
432.6	3566
432.8	3558
433.0	3547
433.2	3544
433.4	3535
433.6	3533
433.8	3524
434.0	3512
434.2	3498
434.4	3494
434.6	3487
434.8	3486
435.0	3479
435.2	3469
435.4	3463
435.6	3460
435.8	3451
436.0	3440
436.2	3432
436.4	3427
436.6	3421
436.8	3425
437.0	3417
437.2	3405
437.4	3393
437.6	3384
437.8	3375
438.0	3376
438.2	3369
438.4	3364
438.6	3356
438.8	3350
439.0	3345
439.2	3346
439.4	3341
439.6	3337
439.8	3330
440.0	3321
440.2	3311
440.4	3305
440.6	3294
440.8	3286
441.0	3277
441.2	3273
441.4	3269
441.6	3263
441.8	3254
442.0	3249
442.2	3242
442.4	3235
442.6	3228
442.8	3222
443.0	3214
443.2	3205
443.4	3195
443.6	3184
443.8	3176
444.0	3170
444.2	3164
444.4	3160
444.6	3153
444.8	3140
445.0	3128
445.2	3114
445.4	3105
445.6	3101
445.8	3096
446.0	3086
446.2	3078
446.4	3069
446.6	3059
446.8	3050
447.0	3041
447.2	3032
447.4	3025
447.6	3018
447.8	3013
448.0	3005
448.2	3001
448.4	2995
448.6	2986
448.8	2976
449.0	2970
449.2	2962
449.4	2956
449.6	2949
449.8	2940
450.0	2933
450.2	2931
450.4	2932
450.6	2933
450.8	2927
451.0	2914
451.2	2902
451.4	2887
451.6	2875
451.8	2868
452.0	2862
452.2	2857
452.4	2852
452.6	2846
452.8	2837
453.0	2823
453.2	2815
453.4	2803
453.6	2794
453.8	2788
454.0	2777
454.2	2767
454.4	2762
454.6	2752
454.8	2745
455.0	2735
455.2	2726
455.4	2720
455.6	2715
455.8	2703
456.0	2693
456.2	2681
456.4	2677
456.6	2670
456.8	2661
457.0	2647
457.2	2638
457.4	2627
457.6	2618
457.8	2607
458.0	2595
458.2	2587
458.4	2586
458.6	2578
458.8	2568
459.0	2556
459.2	2544
459.4	2540
459.6	2536
459.8	2529
460.0	2518
460.2	2504
460.4	2497
460.6	2488
460.8	2480
461.0	2474
461.2	2463
461.4	2454
461.6	2448
461.8	2437
462.0	2426
462.2	2412
462.4	2395
462.6	2383
462.8	2373
463.0	2365
463.2	2358
463.4	2349
463.6	2337
463.8	2329
464.0	2320
464.2	2309
464.4	2296
464.6	2282
464.8	2270
465.0	2260
465.2	2250
465.4	2242
465.6	2233
465.8	2225
466.0	2213
466.2	2202
466.4	2191
466.6	2179
466.8	2168
467.0	2159
467.2	2147
467.4	2142
467.6	2136
467.8	2127
468.0	2118
468.2	2108
468.4	2098
468.6	2089
468.8	2077
469.0	2066
469.2	2051
469.4	2037
469.6	2023
469.8	2011
470.0	1998
470.2	1987
470.4	1974
470.6	1960
470.8	1946
471.0	1932
471.2	1919
471.4	1909
471.6	1896
471.8	1885
472.0	1874
472.2	1858
472.4	1841
472.6	1823
472.8	1801
473.0	1786
473.2	1774
473.4	1763
473.6	1751
473.8	1738
474.0	1724
474.2	1714
474.4	1702
474.6	1685
474.8	1670
475.0	1654
475.2	1640
475.4	1629
475.6	1614
475.8	1597
476.0	1580
476.2	1565
476.4	1550
476.6	1535
476.8	1520
477.0	1509
477.2	1494
477.4	1482
477.6	1468
477.8	1451
478.0	1437
478.2	1427
478.4	1412
478.6	1399
478.8	1385
479.0	1368
479.2	1354
479.4	1343
479.6	1331
479.8	1323
480.0	1313
480.2	1302
480.4	1290
480.6	1277
480.8	1267
481.0	1261
481.2	1252
481.4	1245
481.6	1235
481.8	1226
482.0	1217
482.2	1208
482.4	1196
482.6	1188
482.8	1178
483.0	1170
483.2	1161
483.4	1151
483.6	1140
483.8	1131
484.0	1120
484.2	1111
484.4	1103
484.6	1094
484.8	1085
485.0	1077
485.2	1065
485.4	1058
485.6	1051
485.8	1045
486.0	1037
486.2	1030
486.4	1020
486.6	1013
486.8	1002
487.0	991.6
487.2	981.7
487.4	971.7
487.6	964.3
487.8	958.4
488.0	950.5
488.2	944.6
488.4	937.3
488.6	928.4
488.8	920.9
489.0	914.6
489.2	905.9
489.4	900.2
489.6	895.1
489.8	890.0
490.0	887.0
490.2	882.3
490.4	876.2
490.6	867.8
490.8	862.4
491.0	858.6
491.2	854.4
491.4	852.2
491.6	849.8
491.8	844.7
492.0	841.9
492.2	839.4
492.4	834.3
492.6	833.0
492.8	828.9
493.0	824.0
493.2	822.1
493.4	819.5
493.6	816.2
493.8	812.3
494.0	807.3
494.2	802.9
494.4	800.9
494.6	798.9
494.8	794.4
495.0	790.2
495.2	786.0
495.4	783.3
495.6	782.3
495.8	781.0
496.0	779.0
496.2	777.9
496.4	773.2
496.6	771.2
496.8	767.5
497.0	764.4
497.2	762.5
497.4	759.1
497.6	755.2
497.8	753.2
498.0	751.5
498.2	751.5
498.4	751.0
498.6	748.6
498.8	745.9
499.0	742.3
499.2	740.9
499.4	737.9
499.6	735.3
499.8	733.2
500.0	732.1

