Sample:	'20211010A(EM)
File name:	R-CDs-500.FDS
Run date:	'16:49:59, 05/19/2023
Operator:	Administrator
Comment:	'

Instrument
Model:	F-4700 FL Spectrophotometer
Serial number:	2019-001
ROM Version:	5J24010 00

Instrument parameters
Measurement type:	Wavelength scan
Scan mode:	Emission
Data mode:	Fluorescence
EX WL:	500.0 nm
EM  Start WL:	520.0 nm
EM  End WL:	900.0 nm
Scan speed:	1200 nm/min
Delay:	0.0 s
EX Slit:	5.0 nm
EM Slit:	10.0 nm
PMT Voltage:	550 V
Response:	0.002 s
Corrected spectra:	Off
Shutter control:	On

Processing performed
Savitsky-Golay smoothed
Smoothing order:	3
Number of points:	7
Number of times:	1

Peak integration
Integration method:	Rectangular
Sensitivity:	1
Threshold:	1.000

Peaks
No.	Start(nm)	Apex(nm)	End(nm)	Height(Data)	Valley(nm)	Valley(Data)
1	520.0	544.8	546.4	5066	546.4	5050
2	546.4	548.8	557.4	5059	557.4	4960
3	557.4	558.0	560.0	4983	560.0	4953
4	560.0	561.2	561.8	4977	561.8	4952
5	561.8	562.4	563.0	4972	563.0	4962
6	563.0	578.2	579.0	5134	579.0	5109
7	579.0	580.8	778.8	5143	778.8	16.53
8	778.8	780.0	785.4	17.55	785.4	13.45
9	785.4	787.0	793.6	14.78	793.6	11.72
10	793.6	794.2	805.0	12.85	805.0	8.895
11	805.0	805.6	900.0	9.953	900.0	1.576

Data points
nm	Data
520.0	3314
520.2	3336
520.4	3365
520.6	3397
520.8	3429
521.0	3459
521.2	3476
521.4	3490
521.6	3509
521.8	3530
522.0	3555
522.2	3588
522.4	3614
522.6	3635
522.8	3659
523.0	3683
523.2	3706
523.4	3731
523.6	3744
523.8	3764
524.0	3789
524.2	3819
524.4	3850
524.6	3874
524.8	3887
525.0	3909
525.2	3925
525.4	3948
525.6	3978
525.8	3994
526.0	4014
526.2	4028
526.4	4040
526.6	4062
526.8	4082
527.0	4100
527.2	4128
527.4	4154
527.6	4178
527.8	4191
528.0	4202
528.2	4219
528.4	4248
528.6	4269
528.8	4290
529.0	4299
529.2	4308
529.4	4328
529.6	4348
529.8	4370
530.0	4395
530.2	4411
530.4	4426
530.6	4443
530.8	4454
531.0	4474
531.2	4489
531.4	4506
531.6	4529
531.8	4547
532.0	4555
532.2	4565
532.4	4567
532.6	4581
532.8	4602
533.0	4625
533.2	4649
533.4	4668
533.6	4680
533.8	4683
534.0	4683
534.2	4695
534.4	4707
534.6	4727
534.8	4747
535.0	4756
535.2	4758
535.4	4771
535.6	4777
535.8	4795
536.0	4810
536.2	4829
536.4	4843
536.6	4859
536.8	4857
537.0	4857
537.2	4861
537.4	4873
537.6	4890
537.8	4895
538.0	4889
538.2	4889
538.4	4906
538.6	4923
538.8	4937
539.0	4938
539.2	4933
539.4	4938
539.6	4953
539.8	4962
540.0	4978
540.2	4987
540.4	4989
540.6	5000
540.8	4996
541.0	4993
541.2	5001
541.4	5008
541.6	5021
541.8	5034
542.0	5033
542.2	5027
542.4	5027
542.6	5033
542.8	5045
543.0	5054
543.2	5059
543.4	5059
543.6	5056
543.8	5058
544.0	5048
544.2	5046
544.4	5053
544.6	5061
544.8	5066
545.0	5065
545.2	5052
545.4	5051
545.6	5054
545.8	5056
546.0	5056
546.2	5052
546.4	5050
546.6	5052
546.8	5056
547.0	5060
547.2	5060
547.4	5052
547.6	5054
547.8	5056
548.0	5056
548.2	5054
548.4	5054
548.6	5055
548.8	5059
549.0	5058
549.2	5053
549.4	5048
549.6	5048
549.8	5054
550.0	5054
550.2	5050
550.4	5041
550.6	5044
550.8	5046
551.0	5048
551.2	5052
551.4	5049
551.6	5030
551.8	5027
552.0	5020
552.2	5017
552.4	5020
552.6	5025
552.8	5022
553.0	5024
553.2	5019
553.4	5014
553.6	5011
553.8	5005
554.0	5006
554.2	5008
554.4	5006
554.6	5010
554.8	5011
555.0	4997
555.2	4989
555.4	4982
555.6	4980
555.8	4982
556.0	4985
556.2	4984
556.4	4989
556.6	4989
556.8	4989
557.0	4977
557.2	4966
557.4	4960
557.6	4966
557.8	4975
558.0	4983
558.2	4981
558.4	4974
558.6	4967
558.8	4961
559.0	4966
559.2	4981
559.4	4975
559.6	4963
559.8	4958
560.0	4953
560.2	4953
560.4	4963
560.6	4960
560.8	4960
561.0	4969
561.2	4977
561.4	4969
561.6	4957
561.8	4952
562.0	4956
562.2	4966
562.4	4972
562.6	4968
562.8	4967
563.0	4962
563.2	4970
563.4	4969
563.6	4965
563.8	4968
564.0	4964
564.2	4969
564.4	4979
564.6	4981
564.8	4979
565.0	4975
565.2	4968
565.4	4977
565.6	4979
565.8	4988
566.0	4992
566.2	4994
566.4	5001
566.6	5005
566.8	5000
567.0	5003
567.2	4998
567.4	4999
567.6	5007
567.8	5016
568.0	5022
568.2	5032
568.4	5032
568.6	5031
568.8	5027
569.0	5026
569.2	5029
569.4	5037
569.6	5039
569.8	5042
570.0	5035
570.2	5032
570.4	5036
570.6	5043
570.8	5042
571.0	5050
571.2	5058
571.4	5055
571.6	5060
571.8	5073
572.0	5077
572.2	5081
572.4	5087
572.6	5083
572.8	5078
573.0	5084
573.2	5092
573.4	5089
573.6	5091
573.8	5097
574.0	5088
574.2	5088
574.4	5093
574.6	5089
574.8	5093
575.0	5093
575.2	5097
575.4	5096
575.6	5099
575.8	5100
576.0	5101
576.2	5099
576.4	5101
576.6	5100
576.8	5107
577.0	5118
577.2	5128
577.4	5125
577.6	5127
577.8	5129
578.0	5129
578.2	5134
578.4	5127
578.6	5113
578.8	5112
579.0	5109
579.2	5116
579.4	5117
579.6	5116
579.8	5114
580.0	5115
580.2	5122
580.4	5136
580.6	5138
580.8	5143
581.0	5130
581.2	5123
581.4	5115
581.6	5109
581.8	5110
582.0	5103
582.2	5098
582.4	5100
582.6	5091
582.8	5094
583.0	5096
583.2	5079
583.4	5086
583.6	5085
583.8	5076
584.0	5080
584.2	5078
584.4	5073
584.6	5070
584.8	5060
585.0	5052
585.2	5052
585.4	5050
585.6	5061
585.8	5053
586.0	5034
586.2	5025
586.4	5021
586.6	5021
586.8	5024
587.0	5018
587.2	5005
587.4	4991
587.6	4986
587.8	4986
588.0	4977
588.2	4972
588.4	4967
588.6	4956
588.8	4958
589.0	4956
589.2	4951
589.4	4945
589.6	4933
589.8	4918
590.0	4913
590.2	4901
590.4	4895
590.6	4881
590.8	4862
591.0	4856
591.2	4857
591.4	4856
591.6	4850
591.8	4837
592.0	4827
592.2	4824
592.4	4831
592.6	4821
592.8	4805
593.0	4793
593.2	4787
593.4	4778
593.6	4772
593.8	4750
594.0	4736
594.2	4719
594.4	4720
594.6	4719
594.8	4707
595.0	4690
595.2	4667
595.4	4641
595.6	4629
595.8	4624
596.0	4617
596.2	4614
596.4	4598
596.6	4583
596.8	4571
597.0	4567
597.2	4557
597.4	4546
597.6	4533
597.8	4518
598.0	4510
598.2	4501
598.4	4496
598.6	4481
598.8	4475
599.0	4463
599.2	4447
599.4	4434
599.6	4417
599.8	4400
600.0	4395
600.2	4385
600.4	4379
600.6	4369
600.8	4352
601.0	4336
601.2	4320
601.4	4304
601.6	4293
601.8	4278
602.0	4264
602.2	4248
602.4	4241
602.6	4234
602.8	4225
603.0	4213
603.2	4194
603.4	4171
603.6	4160
603.8	4149
604.0	4142
604.2	4134
604.4	4118
604.6	4101
604.8	4081
605.0	4068
605.2	4055
605.4	4048
605.6	4039
605.8	4028
606.0	4012
606.2	4003
606.4	3994
606.6	3988
606.8	3976
607.0	3957
607.2	3938
607.4	3921
607.6	3906
607.8	3888
608.0	3872
608.2	3860
608.4	3852
608.6	3836
608.8	3824
609.0	3808
609.2	3799
609.4	3784
609.6	3775
609.8	3763
610.0	3755
610.2	3743
610.4	3733
610.6	3715
610.8	3697
611.0	3683
611.2	3676
611.4	3664
611.6	3662
611.8	3658
612.0	3639
612.2	3615
612.4	3596
612.6	3573
612.8	3560
613.0	3558
613.2	3553
613.4	3549
613.6	3539
613.8	3529
614.0	3514
614.2	3504
614.4	3497
614.6	3484
614.8	3454
615.0	3439
615.2	3421
615.4	3418
615.6	3418
615.8	3410
616.0	3393
616.2	3381
616.4	3364
616.6	3358
616.8	3345
617.0	3328
617.2	3323
617.4	3320
617.6	3310
617.8	3300
618.0	3294
618.2	3286
618.4	3278
618.6	3266
618.8	3246
619.0	3226
619.2	3218
619.4	3212
619.6	3197
619.8	3184
620.0	3173
620.2	3166
620.4	3158
620.6	3149
620.8	3135
621.0	3124
621.2	3113
621.4	3103
621.6	3093
621.8	3085
622.0	3077
622.2	3071
622.4	3060
622.6	3047
622.8	3038
623.0	3029
623.2	3024
623.4	3017
623.6	3007
623.8	2992
624.0	2982
624.2	2969
624.4	2966
624.6	2965
624.8	2963
625.0	2955
625.2	2942
625.4	2922
625.6	2910
625.8	2904
626.0	2899
626.2	2898
626.4	2884
626.6	2865
626.8	2852
627.0	2847
627.2	2843
627.4	2840
627.6	2827
627.8	2819
628.0	2817
628.2	2812
628.4	2798
628.6	2781
628.8	2765
629.0	2759
629.2	2754
629.4	2745
629.6	2737
629.8	2731
630.0	2722
630.2	2712
630.4	2702
630.6	2692
630.8	2686
631.0	2681
631.2	2667
631.4	2658
631.6	2649
631.8	2645
632.0	2640
632.2	2632
632.4	2624
632.6	2617
632.8	2603
633.0	2595
633.2	2584
633.4	2574
633.6	2569
633.8	2565
634.0	2553
634.2	2547
634.4	2532
634.6	2525
634.8	2511
635.0	2510
635.2	2504
635.4	2501
635.6	2493
635.8	2485
636.0	2470
636.2	2460
636.4	2447
636.6	2438
636.8	2434
637.0	2426
637.2	2415
637.4	2407
637.6	2400
637.8	2391
638.0	2386
638.2	2380
638.4	2363
638.6	2360
638.8	2354
639.0	2350
639.2	2342
639.4	2335
639.6	2318
639.8	2308
640.0	2297
640.2	2288
640.4	2284
640.6	2288
640.8	2280
641.0	2268
641.2	2257
641.4	2235
641.6	2224
641.8	2221
642.0	2215
642.2	2211
642.4	2204
642.6	2192
642.8	2181
643.0	2172
643.2	2169
643.4	2164
643.6	2160
643.8	2154
644.0	2140
644.2	2131
644.4	2129
644.6	2119
644.8	2116
645.0	2110
645.2	2098
645.4	2083
645.6	2069
645.8	2054
646.0	2042
646.2	2032
646.4	2024
646.6	2017
646.8	2012
647.0	2005
647.2	1998
647.4	1986
647.6	1975
647.8	1965
648.0	1960
648.2	1952
648.4	1948
648.6	1937
648.8	1926
649.0	1910
649.2	1905
649.4	1898
649.6	1891
649.8	1882
650.0	1873
650.2	1860
650.4	1852
650.6	1845
650.8	1835
651.0	1829
651.2	1820
651.4	1810
651.6	1801
651.8	1794
652.0	1786
652.2	1774
652.4	1761
652.6	1753
652.8	1743
653.0	1736
653.2	1726
653.4	1716
653.6	1705
653.8	1699
654.0	1686
654.2	1680
654.4	1665
654.6	1657
654.8	1647
655.0	1646
655.2	1639
655.4	1633
655.6	1621
655.8	1610
656.0	1601
656.2	1597
656.4	1592
656.6	1588
656.8	1582
657.0	1570
657.2	1555
657.4	1540
657.6	1528
657.8	1520
658.0	1513
658.2	1503
658.4	1495
658.6	1488
658.8	1479
659.0	1470
659.2	1461
659.4	1449
659.6	1440
659.8	1432
660.0	1424
660.2	1420
660.4	1416
660.6	1405
660.8	1395
661.0	1380
661.2	1368
661.4	1361
661.6	1358
661.8	1353
662.0	1349
662.2	1342
662.4	1331
662.6	1317
662.8	1299
663.0	1286
663.2	1281
663.4	1279
663.6	1272
663.8	1264
664.0	1254
664.2	1248
664.4	1243
664.6	1236
664.8	1226
665.0	1216
665.2	1212
665.4	1208
665.6	1197
665.8	1190
666.0	1177
666.2	1169
666.4	1162
666.6	1154
666.8	1146
667.0	1142
667.2	1136
667.4	1132
667.6	1127
667.8	1120
668.0	1113
668.2	1105
668.4	1096
668.6	1086
668.8	1077
669.0	1066
669.2	1057
669.4	1051
669.6	1041
669.8	1036
670.0	1030
670.2	1024
670.4	1016
670.6	1011
670.8	1001
671.0	994.1
671.2	986.5
671.4	982.3
671.6	974.5
671.8	969.1
672.0	963.6
672.2	958.6
672.4	950.0
672.6	942.2
672.8	934.2
673.0	929.4
673.2	923.7
673.4	917.9
673.6	910.3
673.8	902.0
674.0	895.0
674.2	891.8
674.4	887.0
674.6	880.9
674.8	874.1
675.0	866.4
675.2	859.6
675.4	851.6
675.6	842.3
675.8	835.1
676.0	831.4
676.2	830.8
676.4	827.6
676.6	820.5
676.8	811.9
677.0	804.6
677.2	799.8
677.4	795.1
677.6	789.2
677.8	782.8
678.0	774.6
678.2	764.6
678.4	757.8
678.6	752.5
678.8	752.2
679.0	749.7
679.2	745.6
679.4	737.9
679.6	732.7
679.8	726.9
680.0	722.9
680.2	715.0
680.4	708.1
680.6	703.2
680.8	700.7
681.0	693.0
681.2	686.6
681.4	679.8
681.6	673.4
681.8	667.9
682.0	662.5
682.2	656.0
682.4	653.7
682.6	652.7
682.8	651.3
683.0	646.3
683.2	641.0
683.4	637.0
683.6	631.3
683.8	627.1
684.0	622.4
684.2	616.0
684.4	610.6
684.6	605.1
684.8	601.8
685.0	600.1
685.2	597.0
685.4	589.1
685.6	583.2
685.8	576.4
686.0	574.0
686.2	568.3
686.4	564.0
686.6	558.3
686.8	557.9
687.0	556.7
687.2	553.0
687.4	548.0
687.6	543.5
687.8	539.7
688.0	537.3
688.2	535.1
688.4	527.3
688.6	522.0
688.8	516.8
689.0	513.2
689.2	511.2
689.4	510.2
689.6	507.7
689.8	504.2
690.0	499.8
690.2	493.5
690.4	489.2
690.6	486.4
690.8	484.2
691.0	480.8
691.2	476.5
691.4	469.0
691.6	466.0
691.8	465.4
692.0	464.8
692.2	464.1
692.4	461.0
692.6	457.3
692.8	453.0
693.0	448.5
693.2	444.7
693.4	440.0
693.6	438.6
693.8	438.6
694.0	436.9
694.2	433.8
694.4	428.6
694.6	421.0
694.8	418.3
695.0	418.6
695.2	417.7
695.4	413.0
695.6	407.6
695.8	403.1
696.0	400.6
696.2	404.2
696.4	404.0
696.6	400.2
696.8	396.5
697.0	392.6
697.2	389.6
697.4	388.4
697.6	385.0
697.8	380.6
698.0	379.7
698.2	378.4
698.4	376.7
698.6	373.7
698.8	370.5
699.0	366.3
699.2	366.2
699.4	364.1
699.6	362.4
699.8	358.8
700.0	356.9
700.2	356.0
700.4	354.8
700.6	352.7
700.8	350.4
701.0	343.8
701.2	340.2
701.4	339.3
701.6	338.8
701.8	337.0
702.0	337.4
702.2	334.2
702.4	331.5
702.6	330.3
702.8	329.0
703.0	326.1
703.2	325.3
703.4	322.9
703.6	319.8
703.8	318.6
704.0	315.4
704.2	311.7
704.4	309.0
704.6	308.3
704.8	306.5
705.0	305.3
705.2	302.0
705.4	296.5
705.6	297.1
705.8	298.2
706.0	297.4
706.2	297.1
706.4	295.8
706.6	291.6
706.8	289.5
707.0	286.2
707.2	283.1
707.4	282.1
707.6	281.8
707.8	281.5
708.0	278.0
708.2	274.5
708.4	271.9
708.6	267.8
708.8	266.9
709.0	267.4
709.2	265.2
709.4	264.7
709.6	264.4
709.8	260.7
710.0	258.9
710.2	256.2
710.4	254.5
710.6	254.2
710.8	254.1
711.0	250.4
711.2	247.7
711.4	245.0
711.6	245.1
711.8	243.9
712.0	241.9
712.2	238.5
712.4	236.3
712.6	235.2
712.8	234.6
713.0	232.5
713.2	230.3
713.4	229.0
713.6	228.2
713.8	227.3
714.0	225.9
714.2	224.7
714.4	224.1
714.6	224.1
714.8	223.8
715.0	221.3
715.2	217.8
715.4	213.5
715.6	209.9
715.8	209.6
716.0	210.1
716.2	210.4
716.4	210.3
716.6	208.2
716.8	205.2
717.0	203.9
717.2	203.0
717.4	201.4
717.6	199.4
717.8	195.9
718.0	193.2
718.2	192.0
718.4	190.0
718.6	189.8
718.8	189.4
719.0	187.6
719.2	187.7
719.4	185.5
719.6	183.1
719.8	182.2
720.0	180.9
720.2	180.0
720.4	178.8
720.6	175.8
720.8	174.4
721.0	173.4
721.2	172.5
721.4	171.5
721.6	170.1
721.8	169.2
722.0	168.2
722.2	167.3
722.4	165.1
722.6	163.2
722.8	160.9
723.0	160.4
723.2	160.2
723.4	160.1
723.6	158.2
723.8	155.9
724.0	153.1
724.2	152.5
724.4	152.5
724.6	153.1
724.8	152.2
725.0	150.4
725.2	148.7
725.4	148.0
725.6	146.1
725.8	144.5
726.0	142.6
726.2	141.4
726.4	140.7
726.6	139.8
726.8	138.1
727.0	137.6
727.2	137.1
727.4	137.1
727.6	136.4
727.8	134.5
728.0	133.0
728.2	130.6
728.4	129.0
728.6	128.8
728.8	128.1
729.0	127.3
729.2	127.0
729.4	125.0
729.6	123.2
729.8	122.3
730.0	121.6
730.2	120.7
730.4	120.0
730.6	119.7
730.8	118.7
731.0	117.0
731.2	116.6
731.4	114.1
731.6	112.6
731.8	111.3
732.0	110.3
732.2	108.7
732.4	107.9
732.6	107.4
732.8	107.3
733.0	107.4
733.2	107.3
733.4	105.8
733.6	104.6
733.8	104.3
734.0	103.1
734.2	102.4
734.4	102.0
734.6	101.1
734.8	99.27
735.0	97.65
735.2	96.25
735.4	95.88
735.6	96.32
735.8	96.67
736.0	95.01
736.2	93.31
736.4	91.80
736.6	91.37
736.8	90.97
737.0	91.27
737.2	91.22
737.4	89.90
737.6	88.89
737.8	87.74
738.0	87.17
738.2	87.42
738.4	87.26
738.6	86.24
738.8	85.13
739.0	83.31
739.2	83.31
739.4	82.04
739.6	81.77
739.8	80.76
740.0	79.32
740.2	78.38
740.4	78.05
740.6	76.95
740.8	78.24
741.0	78.10
741.2	78.00
741.4	76.56
741.6	74.64
741.8	73.05
742.0	73.32
742.2	73.39
742.4	73.66
742.6	72.71
742.8	71.93
743.0	70.82
743.2	70.84
743.4	70.37
743.6	69.26
743.8	68.34
744.0	67.71
744.2	67.67
744.4	67.65
744.6	67.39
744.8	66.35
745.0	65.33
745.2	64.67
745.4	64.38
745.6	64.15
745.8	63.57
746.0	62.44
746.2	61.20
746.4	60.39
746.6	60.08
746.8	61.31
747.0	61.24
747.2	60.78
747.4	59.89
747.6	59.11
747.8	58.15
748.0	58.32
748.2	57.32
748.4	56.35
748.6	55.86
748.8	56.22
749.0	56.40
749.2	56.39
749.4	56.00
749.6	54.70
749.8	54.01
750.0	53.80
750.2	53.27
750.4	52.81
750.6	52.58
750.8	52.00
751.0	52.31
751.2	52.54
751.4	52.16
751.6	52.03
751.8	51.07
752.0	49.59
752.2	48.33
752.4	47.72
752.6	46.99
752.8	46.90
753.0	46.92
753.2	46.86
753.4	45.64
753.6	46.00
753.8	45.57
754.0	45.47
754.2	45.18
754.4	44.89
754.6	44.43
754.8	44.93
755.0	44.28
755.2	43.92
755.4	42.54
755.6	41.69
755.8	41.85
756.0	42.70
756.2	42.58
756.4	41.83
756.6	40.87
756.8	40.80
757.0	40.61
757.2	40.68
757.4	40.92
757.6	40.49
757.8	39.79
758.0	39.18
758.2	38.43
758.4	37.73
758.6	38.53
758.8	38.97
759.0	38.18
759.2	37.84
759.4	36.83
759.6	35.95
759.8	35.90
760.0	35.45
760.2	34.69
760.4	35.34
760.6	35.40
760.8	35.61
761.0	35.82
761.2	35.79
761.4	34.41
761.6	34.08
761.8	33.32
762.0	32.75
762.2	32.25
762.4	32.94
762.6	32.50
762.8	33.26
763.0	33.16
763.2	32.53
763.4	31.42
763.6	30.39
763.8	29.72
764.0	30.45
764.2	30.80
764.4	31.09
764.6	30.91
764.8	29.94
765.0	29.36
765.2	29.06
765.4	28.33
765.6	28.18
765.8	28.49
766.0	28.72
766.2	28.14
766.4	27.90
766.6	27.62
766.8	27.65
767.0	28.00
767.2	27.86
767.4	27.06
767.6	26.27
767.8	26.08
768.0	25.93
768.2	25.90
768.4	25.74
768.6	25.91
768.8	25.24
769.0	24.95
769.2	24.44
769.4	23.82
769.6	23.61
769.8	24.09
770.0	23.88
770.2	23.83
770.4	24.13
770.6	23.87
770.8	23.85
771.0	23.52
771.2	22.73
771.4	22.40
771.6	22.68
771.8	22.68
772.0	22.55
772.2	22.04
772.4	21.77
772.6	21.75
772.8	21.92
773.0	22.32
773.2	22.16
773.4	21.58
773.6	20.95
773.8	20.39
774.0	19.92
774.2	20.84
774.4	21.28
774.6	21.42
774.8	21.01
775.0	20.50
775.2	19.78
775.4	19.31
775.6	19.06
775.8	19.33
776.0	19.74
776.2	19.86
776.4	19.51
776.6	18.89
776.8	18.45
777.0	18.12
777.2	18.48
777.4	18.05
777.6	17.50
777.8	17.94
778.0	17.61
778.2	17.26
778.4	17.00
778.6	16.62
778.8	16.53
779.0	16.94
779.2	16.82
779.4	16.70
779.6	16.54
779.8	16.82
780.0	17.55
780.2	17.50
780.4	17.38
780.6	16.89
780.8	16.26
781.0	16.44
781.2	17.18
781.4	17.16
781.6	17.17
781.8	16.78
782.0	15.75
782.2	15.36
782.4	15.72
782.6	15.89
782.8	15.98
783.0	16.15
783.2	15.98
783.4	15.40
783.6	15.25
783.8	14.79
784.0	14.14
784.2	13.69
784.4	13.96
784.6	14.04
784.8	14.05
785.0	14.15
785.2	13.97
785.4	13.45
785.6	14.07
785.8	14.27
786.0	13.90
786.2	13.84
786.4	13.92
786.6	13.79
786.8	14.46
787.0	14.78
787.2	14.41
787.4	14.13
787.6	13.65
787.8	13.20
788.0	13.12
788.2	13.44
788.4	13.16
788.6	13.20
788.8	12.88
789.0	12.78
789.2	13.04
789.4	13.17
789.6	13.19
789.8	13.17
790.0	13.16
790.2	12.91
790.4	12.78
790.6	12.72
790.8	12.71
791.0	12.68
791.2	12.61
791.4	12.47
791.6	12.33
791.8	12.29
792.0	11.95
792.2	12.03
792.4	11.87
792.6	12.07
792.8	11.95
793.0	11.99
793.2	11.80
793.4	11.76
793.6	11.72
793.8	12.15
794.0	12.42
794.2	12.85
794.4	12.36
794.6	11.77
794.8	11.16
795.0	11.21
795.2	11.52
795.4	11.95
795.6	12.02
795.8	12.03
796.0	11.77
796.2	11.57
796.4	11.37
796.6	11.11
796.8	11.04
797.0	11.01
797.2	10.91
797.4	11.06
797.6	11.27
797.8	11.36
798.0	11.24
798.2	10.94
798.4	10.64
798.6	10.47
798.8	10.60
799.0	10.60
799.2	10.35
799.4	10.50
799.6	10.64
799.8	10.69
800.0	10.85
800.2	10.31
800.4	9.644
800.6	9.430
800.8	9.466
801.0	9.837
801.2	10.04
801.4	9.981
801.6	9.869
801.8	9.402
802.0	9.534
802.2	9.692
802.4	10.14
802.6	10.24
802.8	10.40
803.0	10.20
803.2	10.13
803.4	9.831
803.6	9.717
803.8	9.223
804.0	9.468
804.2	9.643
804.4	9.696
804.6	9.576
804.8	9.048
805.0	8.895
805.2	9.214
805.4	9.659
805.6	9.953
805.8	9.653
806.0	9.433
806.2	9.384
806.4	9.269
806.6	9.393
806.8	9.339
807.0	9.161
807.2	9.371
807.4	9.563
807.6	9.148
807.8	9.077
808.0	8.673
808.2	8.295
808.4	8.422
808.6	8.647
808.8	8.274
809.0	8.632
809.2	8.480
809.4	8.204
809.6	8.455
809.8	8.559
810.0	8.469
810.2	8.467
810.4	8.452
810.6	8.481
810.8	8.686
811.0	8.561
811.2	8.446
811.4	8.081
811.6	7.972
811.8	8.174
812.0	8.308
812.2	8.191
812.4	8.189
812.6	7.922
812.8	7.575
813.0	7.438
813.2	7.478
813.4	7.754
813.6	7.969
813.8	7.904
814.0	7.292
814.2	7.160
814.4	7.333
814.6	7.720
814.8	7.625
815.0	7.680
815.2	7.363
815.4	7.407
815.6	7.398
815.8	7.486
816.0	7.339
816.2	7.336
816.4	7.153
816.6	7.051
816.8	6.970
817.0	7.059
817.2	7.270
817.4	7.407
817.6	7.261
817.8	7.299
818.0	7.243
818.2	7.079
818.4	7.004
818.6	6.960
818.8	6.616
819.0	6.502
819.2	6.339
819.4	6.215
819.6	6.172
819.8	6.382
820.0	6.584
820.2	6.732
820.4	6.803
820.6	6.854
820.8	6.774
821.0	6.681
821.2	6.492
821.4	6.411
821.6	6.321
821.8	6.365
822.0	6.286
822.2	5.937
822.4	5.689
822.6	5.848
822.8	6.223
823.0	6.443
823.2	6.344
823.4	6.118
823.6	6.149
823.8	6.073
824.0	6.239
824.2	6.105
824.4	5.737
824.6	5.550
824.8	5.420
825.0	5.318
825.2	5.399
825.4	5.353
825.6	5.500
825.8	5.633
826.0	5.335
826.2	5.322
826.4	5.285
826.6	5.143
826.8	5.232
827.0	5.411
827.2	5.191
827.4	5.268
827.6	5.370
827.8	5.397
828.0	5.237
828.2	5.126
828.4	5.012
828.6	5.016
828.8	4.916
829.0	4.725
829.2	4.539
829.4	4.392
829.6	4.678
829.8	4.745
830.0	4.651
830.2	4.607
830.4	4.866
830.6	4.764
830.8	4.930
831.0	4.910
831.2	4.444
831.4	4.209
831.6	4.169
831.8	3.859
832.0	3.916
832.2	4.241
832.4	4.272
832.6	4.483
832.8	4.529
833.0	4.482
833.2	4.316
833.4	4.237
833.6	4.013
833.8	3.868
834.0	3.793
834.2	4.089
834.4	4.457
834.6	4.631
834.8	4.488
835.0	4.008
835.2	3.600
835.4	3.559
835.6	3.726
835.8	3.918
836.0	3.976
836.2	3.841
836.4	3.714
836.6	3.359
836.8	3.306
837.0	3.397
837.2	3.721
837.4	3.863
837.6	4.066
837.8	3.788
838.0	3.664
838.2	3.401
838.4	3.362
838.6	3.255
838.8	3.239
839.0	3.288
839.2	3.494
839.4	3.585
839.6	3.481
839.8	3.416
840.0	3.174
840.2	3.001
840.4	2.884
840.6	2.970
840.8	2.951
841.0	2.993
841.2	3.120
841.4	2.956
841.6	2.809
841.8	3.043
842.0	3.226
842.2	3.317
842.4	3.281
842.6	2.868
842.8	2.703
843.0	2.773
843.2	2.842
843.4	2.999
843.6	3.054
843.8	2.944
844.0	3.011
844.2	2.916
844.4	2.796
844.6	2.528
844.8	2.545
845.0	2.637
845.2	2.827
845.4	2.878
845.6	3.017
845.8	2.870
846.0	2.983
846.2	2.877
846.4	2.794
846.6	2.663
846.8	2.741
847.0	2.808
847.2	3.022
847.4	3.059
847.6	2.878
847.8	2.565
848.0	2.258
848.2	2.025
848.4	2.189
848.6	2.486
848.8	2.708
849.0	2.824
849.2	2.818
849.4	2.734
849.6	2.630
849.8	2.338
850.0	2.079
850.2	2.043
850.4	2.108
850.6	2.332
850.8	2.432
851.0	2.322
851.2	2.226
851.4	2.418
851.6	2.525
851.8	2.490
852.0	2.300
852.2	2.184
852.4	2.036
852.6	2.251
852.8	2.421
853.0	2.350
853.2	2.327
853.4	2.328
853.6	2.199
853.8	2.171
854.0	2.177
854.2	2.075
854.4	2.095
854.6	2.142
854.8	2.182
855.0	2.172
855.2	2.227
855.4	2.045
855.6	2.132
855.8	2.204
856.0	2.236
856.2	2.163
856.4	2.045
856.6	1.857
856.8	1.907
857.0	2.076
857.2	2.179
857.4	2.304
857.6	2.200
857.8	2.159
858.0	2.101
858.2	2.094
858.4	1.982
858.6	2.103
858.8	1.896
859.0	2.075
859.2	2.163
859.4	2.191
859.6	2.216
859.8	2.290
860.0	2.281
860.2	2.327
860.4	2.358
860.6	2.272
860.8	2.144
861.0	2.205
861.2	2.211
861.4	2.179
861.6	2.133
861.8	1.987
862.0	1.905
862.2	2.044
862.4	2.145
862.6	2.223
862.8	2.206
863.0	2.187
863.2	2.098
863.4	2.119
863.6	2.085
863.8	1.951
864.0	1.978
864.2	1.940
864.4	1.994
864.6	2.095
864.8	1.984
865.0	2.018
865.2	1.929
865.4	1.955
865.6	2.052
865.8	2.039
866.0	1.955
866.2	1.939
866.4	1.845
866.6	1.871
866.8	1.982
867.0	2.109
867.2	2.336
867.4	2.334
867.6	2.230
867.8	1.964
868.0	1.786
868.2	1.604
868.4	1.727
868.6	1.809
868.8	1.896
869.0	1.989
869.2	2.048
869.4	1.955
869.6	2.044
869.8	2.039
870.0	2.005
870.2	2.081
870.4	2.029
870.6	2.125
870.8	2.149
871.0	2.110
871.2	1.831
871.4	1.790
871.6	1.638
871.8	1.737
872.0	1.818
872.2	2.001
872.4	1.894
872.6	1.909
872.8	1.920
873.0	1.981
873.2	1.984
873.4	2.105
873.6	2.013
873.8	1.847
874.0	1.941
874.2	2.046
874.4	1.890
874.6	1.851
874.8	1.694
875.0	1.630
875.2	1.733
875.4	1.931
875.6	1.913
875.8	1.935
876.0	1.975
876.2	1.917
876.4	1.836
876.6	1.700
876.8	1.723
877.0	1.718
877.2	1.856
877.4	1.895
877.6	1.859
877.8	1.812
878.0	2.064
878.2	2.072
878.4	2.067
878.6	2.085
878.8	2.012
879.0	1.991
879.2	2.079
879.4	1.900
879.6	1.895
879.8	1.862
880.0	1.948
880.2	1.924
880.4	1.987
880.6	1.955
880.8	2.017
881.0	1.815
881.2	1.803
881.4	1.718
881.6	1.719
881.8	1.949
882.0	2.040
882.2	2.093
882.4	2.093
882.6	2.109
882.8	1.982
883.0	1.941
883.2	1.900
883.4	1.916
883.6	1.906
883.8	2.000
884.0	1.917
884.2	1.820
884.4	2.048
884.6	2.149
884.8	2.288
885.0	2.324
885.2	2.185
885.4	1.947
885.6	2.053
885.8	1.970
886.0	1.945
886.2	1.886
886.4	1.755
886.6	1.721
886.8	1.744
887.0	1.746
887.2	1.788
887.4	1.931
887.6	1.887
887.8	1.991
888.0	1.977
888.2	1.936
888.4	2.050
888.6	2.189
888.8	2.120
889.0	2.123
889.2	2.073
889.4	1.953
889.6	1.973
889.8	1.906
890.0	1.897
890.2	2.013
890.4	2.094
890.6	2.005
890.8	1.913
891.0	1.850
891.2	1.896
891.4	2.002
891.6	2.055
891.8	2.071
892.0	2.008
892.2	1.981
892.4	1.957
892.6	1.866
892.8	1.946
893.0	2.157
893.2	2.244
893.4	2.417
893.6	2.264
893.8	2.175
894.0	2.091
894.2	2.061
894.4	2.059
894.6	2.143
894.8	2.052
895.0	1.975
895.2	1.885
895.4	1.946
895.6	1.912
895.8	1.927
896.0	2.027
896.2	1.993
896.4	1.982
896.6	1.926
896.8	1.742
897.0	1.640
897.2	1.703
897.4	1.914
897.6	1.938
897.8	1.952
898.0	1.930
898.2	1.929
898.4	1.963
898.6	2.133
898.8	2.032
899.0	1.955
899.2	1.830
899.4	1.843
899.6	1.879
899.8	1.821
900.0	1.576

