Sample:	'20211010A(EM)
File name:	R-CDs-490.FDS
Run date:	'16:45:19, 05/19/2023
Operator:	Administrator
Comment:	'

Instrument
Model:	F-4700 FL Spectrophotometer
Serial number:	2019-001
ROM Version:	5J24010 00

Instrument parameters
Measurement type:	Wavelength scan
Scan mode:	Emission
Data mode:	Fluorescence
EX WL:	490.0 nm
EM  Start WL:	510.0 nm
EM  End WL:	900.0 nm
Scan speed:	1200 nm/min
Delay:	0.0 s
EX Slit:	5.0 nm
EM Slit:	10.0 nm
PMT Voltage:	500 V
Response:	0.002 s
Corrected spectra:	Off
Shutter control:	On

Processing performed
Savitsky-Golay smoothed
Smoothing order:	3
Number of points:	7
Number of times:	1

Peak integration
Integration method:	Rectangular
Sensitivity:	1
Threshold:	1.000

Peaks
No.	Start(nm)	Apex(nm)	End(nm)	Height(Data)	Valley(nm)	Valley(Data)
1	510.0	542.0	543.6	3975	543.6	3959
2	543.6	544.4	757.6	3976	757.6	16.80
3	757.6	758.2	900.0	18.13	900.0	1.061

Data points
nm	Data
510.0	1895
510.2	1910
510.4	1929
510.6	1950
510.8	1973
511.0	1994
511.2	2016
511.4	2040
511.6	2053
511.8	2073
512.0	2091
512.2	2106
512.4	2127
512.6	2147
512.8	2161
513.0	2177
513.2	2191
513.4	2212
513.6	2234
513.8	2256
514.0	2276
514.2	2294
514.4	2313
514.6	2336
514.8	2356
515.0	2376
515.2	2395
515.4	2412
515.6	2428
515.8	2446
516.0	2469
516.2	2490
516.4	2511
516.6	2529
516.8	2542
517.0	2563
517.2	2581
517.4	2602
517.6	2623
517.8	2640
518.0	2659
518.2	2683
518.4	2700
518.6	2717
518.8	2735
519.0	2752
519.2	2774
519.4	2793
519.6	2809
519.8	2820
520.0	2836
520.2	2854
520.4	2878
520.6	2896
520.8	2916
521.0	2934
521.2	2950
521.4	2966
521.6	2986
521.8	3005
522.0	3025
522.2	3044
522.4	3062
522.6	3085
522.8	3104
523.0	3118
523.2	3130
523.4	3145
523.6	3162
523.8	3182
524.0	3191
524.2	3199
524.4	3212
524.6	3234
524.8	3255
525.0	3278
525.2	3293
525.4	3303
525.6	3317
525.8	3330
526.0	3342
526.2	3359
526.4	3377
526.6	3392
526.8	3409
527.0	3421
527.2	3434
527.4	3445
527.6	3456
527.8	3464
528.0	3474
528.2	3482
528.4	3499
528.6	3519
528.8	3534
529.0	3550
529.2	3564
529.4	3572
529.6	3583
529.8	3597
530.0	3607
530.2	3614
530.4	3626
530.6	3642
530.8	3652
531.0	3669
531.2	3676
531.4	3677
531.6	3686
531.8	3701
532.0	3715
532.2	3728
532.4	3731
532.6	3736
532.8	3746
533.0	3758
533.2	3772
533.4	3779
533.6	3785
533.8	3796
534.0	3808
534.2	3817
534.4	3826
534.6	3830
534.8	3838
535.0	3847
535.2	3853
535.4	3858
535.6	3864
535.8	3864
536.0	3872
536.2	3876
536.4	3883
536.6	3883
536.8	3888
537.0	3893
537.2	3901
537.4	3906
537.6	3918
537.8	3924
538.0	3926
538.2	3936
538.4	3937
538.6	3941
538.8	3948
539.0	3948
539.2	3946
539.4	3949
539.6	3948
539.8	3952
540.0	3953
540.2	3954
540.4	3957
540.6	3965
540.8	3972
541.0	3976
541.2	3971
541.4	3970
541.6	3969
541.8	3972
542.0	3975
542.2	3974
542.4	3970
542.6	3970
542.8	3971
543.0	3970
543.2	3967
543.4	3961
543.6	3959
543.8	3961
544.0	3969
544.2	3975
544.4	3976
544.6	3975
544.8	3968
545.0	3961
545.2	3960
545.4	3955
545.6	3953
545.8	3950
546.0	3945
546.2	3939
546.4	3939
546.6	3936
546.8	3937
547.0	3932
547.2	3928
547.4	3926
547.6	3930
547.8	3932
548.0	3935
548.2	3931
548.4	3924
548.6	3918
548.8	3918
549.0	3915
549.2	3910
549.4	3900
549.6	3889
549.8	3884
550.0	3878
550.2	3876
550.4	3878
550.6	3874
550.8	3862
551.0	3859
551.2	3852
551.4	3851
551.6	3854
551.8	3851
552.0	3841
552.2	3836
552.4	3827
552.6	3831
552.8	3831
553.0	3828
553.2	3823
553.4	3815
553.6	3799
553.8	3797
554.0	3792
554.2	3785
554.4	3778
554.6	3773
554.8	3767
555.0	3765
555.2	3760
555.4	3747
555.6	3735
555.8	3735
556.0	3732
556.2	3733
556.4	3729
556.6	3722
556.8	3712
557.0	3709
557.2	3701
557.4	3695
557.6	3686
557.8	3684
558.0	3680
558.2	3682
558.4	3677
558.6	3671
558.8	3667
559.0	3660
559.2	3657
559.4	3653
559.6	3647
559.8	3640
560.0	3641
560.2	3640
560.4	3633
560.6	3626
560.8	3620
561.0	3614
561.2	3611
561.4	3615
561.6	3607
561.8	3601
562.0	3596
562.2	3593
562.4	3588
562.6	3586
562.8	3579
563.0	3575
563.2	3571
563.4	3570
563.6	3567
563.8	3562
564.0	3553
564.2	3549
564.4	3544
564.6	3545
564.8	3544
565.0	3543
565.2	3537
565.4	3535
565.6	3532
565.8	3531
566.0	3527
566.2	3528
566.4	3528
566.6	3526
566.8	3519
567.0	3511
567.2	3498
567.4	3495
567.6	3494
567.8	3495
568.0	3494
568.2	3485
568.4	3481
568.6	3476
568.8	3472
569.0	3467
569.2	3462
569.4	3460
569.6	3467
569.8	3467
570.0	3473
570.2	3468
570.4	3460
570.6	3461
570.8	3457
571.0	3454
571.2	3456
571.4	3451
571.6	3441
571.8	3437
572.0	3425
572.2	3421
572.4	3421
572.6	3421
572.8	3419
573.0	3421
573.2	3414
573.4	3412
573.6	3410
573.8	3406
574.0	3401
574.2	3395
574.4	3388
574.6	3384
574.8	3381
575.0	3378
575.2	3371
575.4	3370
575.6	3365
575.8	3367
576.0	3369
576.2	3371
576.4	3369
576.6	3366
576.8	3358
577.0	3354
577.2	3348
577.4	3342
577.6	3337
577.8	3334
578.0	3328
578.2	3323
578.4	3317
578.6	3314
578.8	3313
579.0	3311
579.2	3301
579.4	3295
579.6	3289
579.8	3285
580.0	3279
580.2	3269
580.4	3261
580.6	3260
580.8	3257
581.0	3259
581.2	3253
581.4	3251
581.6	3244
581.8	3240
582.0	3234
582.2	3223
582.4	3215
582.6	3217
582.8	3212
583.0	3211
583.2	3207
583.4	3200
583.6	3193
583.8	3186
584.0	3178
584.2	3172
584.4	3169
584.6	3169
584.8	3163
585.0	3156
585.2	3145
585.4	3137
585.6	3131
585.8	3120
586.0	3111
586.2	3108
586.4	3100
586.6	3098
586.8	3096
587.0	3091
587.2	3083
587.4	3083
587.6	3074
587.8	3064
588.0	3055
588.2	3052
588.4	3041
588.6	3037
588.8	3024
589.0	3015
589.2	3006
589.4	3004
589.6	2998
589.8	2993
590.0	2981
590.2	2970
590.4	2960
590.6	2956
590.8	2951
591.0	2944
591.2	2937
591.4	2926
591.6	2917
591.8	2907
592.0	2895
592.2	2885
592.4	2880
592.6	2875
592.8	2870
593.0	2862
593.2	2852
593.4	2843
593.6	2834
593.8	2828
594.0	2817
594.2	2807
594.4	2793
594.6	2783
594.8	2774
595.0	2767
595.2	2759
595.4	2756
595.6	2752
595.8	2744
596.0	2735
596.2	2724
596.4	2712
596.6	2703
596.8	2690
597.0	2677
597.2	2668
597.4	2662
597.6	2658
597.8	2651
598.0	2642
598.2	2629
598.4	2617
598.6	2609
598.8	2600
599.0	2589
599.2	2582
599.4	2572
599.6	2564
599.8	2555
600.0	2543
600.2	2532
600.4	2528
600.6	2528
600.8	2519
601.0	2507
601.2	2498
601.4	2485
601.6	2478
601.8	2471
602.0	2455
602.2	2444
602.4	2438
602.6	2430
602.8	2429
603.0	2428
603.2	2416
603.4	2404
603.6	2392
603.8	2379
604.0	2370
604.2	2362
604.4	2351
604.6	2341
604.8	2330
605.0	2320
605.2	2310
605.4	2304
605.6	2296
605.8	2286
606.0	2273
606.2	2262
606.4	2257
606.6	2254
606.8	2251
607.0	2239
607.2	2226
607.4	2212
607.6	2204
607.8	2196
608.0	2191
608.2	2182
608.4	2169
608.6	2159
608.8	2150
609.0	2145
609.2	2142
609.4	2137
609.6	2126
609.8	2114
610.0	2101
610.2	2093
610.4	2087
610.6	2081
610.8	2071
611.0	2056
611.2	2047
611.4	2041
611.6	2031
611.8	2023
612.0	2013
612.2	2004
612.4	2000
612.6	1993
612.8	1985
613.0	1975
613.2	1966
613.4	1960
613.6	1952
613.8	1940
614.0	1932
614.2	1924
614.4	1919
614.6	1915
614.8	1908
615.0	1897
615.2	1889
615.4	1881
615.6	1876
615.8	1868
616.0	1861
616.2	1851
616.4	1844
616.6	1835
616.8	1829
617.0	1820
617.2	1813
617.4	1805
617.6	1796
617.8	1787
618.0	1780
618.2	1775
618.4	1770
618.6	1763
618.8	1755
619.0	1748
619.2	1740
619.4	1732
619.6	1720
619.8	1713
620.0	1707
620.2	1704
620.4	1702
620.6	1695
620.8	1687
621.0	1680
621.2	1671
621.4	1663
621.6	1660
621.8	1656
622.0	1651
622.2	1646
622.4	1636
622.6	1628
622.8	1622
623.0	1618
623.2	1610
623.4	1604
623.6	1595
623.8	1586
624.0	1576
624.2	1572
624.4	1570
624.6	1568
624.8	1563
625.0	1556
625.2	1547
625.4	1539
625.6	1533
625.8	1526
626.0	1520
626.2	1514
626.4	1510
626.6	1505
626.8	1500
627.0	1491
627.2	1483
627.4	1472
627.6	1466
627.8	1463
628.0	1460
628.2	1454
628.4	1447
628.6	1440
628.8	1434
629.0	1430
629.2	1425
629.4	1421
629.6	1413
629.8	1409
630.0	1405
630.2	1401
630.4	1397
630.6	1388
630.8	1378
631.0	1369
631.2	1363
631.4	1359
631.6	1357
631.8	1352
632.0	1349
632.2	1344
632.4	1340
632.6	1335
632.8	1332
633.0	1327
633.2	1322
633.4	1317
633.6	1311
633.8	1301
634.0	1293
634.2	1285
634.4	1280
634.6	1276
634.8	1272
635.0	1265
635.2	1260
635.4	1258
635.6	1254
635.8	1248
636.0	1241
636.2	1236
636.4	1230
636.6	1226
636.8	1222
637.0	1214
637.2	1210
637.4	1208
637.6	1201
637.8	1196
638.0	1191
638.2	1187
638.4	1186
638.6	1183
638.8	1176
639.0	1169
639.2	1161
639.4	1155
639.6	1150
639.8	1145
640.0	1142
640.2	1137
640.4	1135
640.6	1132
640.8	1127
641.0	1122
641.2	1114
641.4	1105
641.6	1102
641.8	1098
642.0	1094
642.2	1093
642.4	1088
642.6	1080
642.8	1077
643.0	1071
643.2	1068
643.4	1062
643.6	1056
643.8	1049
644.0	1044
644.2	1040
644.4	1039
644.6	1030
644.8	1025
645.0	1018
645.2	1011
645.4	1010
645.6	1009
645.8	1004
646.0	1002
646.2	994.9
646.4	986.8
646.6	980.8
646.8	976.6
647.0	972.4
647.2	968.3
647.4	959.8
647.6	952.5
647.8	946.2
648.0	943.4
648.2	939.6
648.4	935.6
648.6	931.4
648.8	929.8
649.0	925.1
649.2	918.9
649.4	911.2
649.6	904.7
649.8	901.0
650.0	899.0
650.2	893.1
650.4	887.3
650.6	881.9
650.8	878.3
651.0	876.4
651.2	873.8
651.4	868.4
651.6	864.0
651.8	859.7
652.0	855.7
652.2	851.2
652.4	844.8
652.6	839.3
652.8	834.7
653.0	828.3
653.2	824.5
653.4	819.1
653.6	813.4
653.8	810.2
654.0	806.7
654.2	802.1
654.4	798.7
654.6	794.7
654.8	789.5
655.0	784.8
655.2	778.3
655.4	772.1
655.6	768.8
655.8	765.9
656.0	762.2
656.2	758.0
656.4	750.7
656.6	744.0
656.8	741.1
657.0	736.7
657.2	734.5
657.4	730.7
657.6	725.3
657.8	720.4
658.0	716.4
658.2	710.2
658.4	708.0
658.6	704.0
658.8	699.5
659.0	694.5
659.2	688.1
659.4	683.2
659.6	680.8
659.8	676.8
660.0	672.4
660.2	668.2
660.4	661.0
660.6	657.8
660.8	654.6
661.0	653.7
661.2	651.1
661.4	648.2
661.6	640.6
661.8	633.3
662.0	629.1
662.2	626.6
662.4	623.1
662.6	619.3
662.8	613.5
663.0	608.3
663.2	607.5
663.4	604.7
663.6	602.4
663.8	598.3
664.0	593.4
664.2	587.4
664.4	582.9
664.6	579.2
664.8	576.9
665.0	573.4
665.2	570.1
665.4	566.0
665.6	559.9
665.8	556.2
666.0	552.5
666.2	549.9
666.4	546.4
666.6	543.3
666.8	538.3
667.0	534.8
667.2	531.1
667.4	529.0
667.6	524.6
667.8	521.1
668.0	517.2
668.2	512.5
668.4	508.9
668.6	504.9
668.8	501.4
669.0	498.6
669.2	496.4
669.4	493.0
669.6	489.4
669.8	484.5
670.0	481.8
670.2	476.7
670.4	474.0
670.6	471.2
670.8	468.1
671.0	463.8
671.2	460.8
671.4	455.8
671.6	454.0
671.8	452.3
672.0	450.3
672.2	445.9
672.4	441.0
672.6	437.4
672.8	435.9
673.0	434.0
673.2	430.8
673.4	425.9
673.6	422.3
673.8	419.6
674.0	417.0
674.2	414.2
674.4	410.4
674.6	406.3
674.8	405.0
675.0	403.2
675.2	401.6
675.4	399.2
675.6	395.9
675.8	390.9
676.0	386.8
676.2	383.5
676.4	381.0
676.6	380.5
676.8	378.2
677.0	374.4
677.2	370.8
677.4	367.1
677.6	363.9
677.8	362.8
678.0	360.6
678.2	359.2
678.4	357.7
678.6	354.0
678.8	350.3
679.0	346.0
679.2	342.1
679.4	339.0
679.6	337.9
679.8	335.2
680.0	332.9
680.2	330.6
680.4	328.5
680.6	325.3
680.8	323.9
681.0	320.6
681.2	318.3
681.4	316.5
681.6	314.6
681.8	312.0
682.0	309.9
682.2	307.6
682.4	305.4
682.6	303.9
682.8	300.7
683.0	297.3
683.2	295.8
683.4	294.0
683.6	291.6
683.8	290.2
684.0	288.0
684.2	285.0
684.4	283.2
684.6	280.4
684.8	278.8
685.0	277.1
685.2	275.1
685.4	272.9
685.6	270.5
685.8	267.5
686.0	265.9
686.2	263.5
686.4	259.9
686.6	258.2
686.8	257.0
687.0	256.1
687.2	254.8
687.4	252.5
687.6	250.0
687.8	248.1
688.0	246.5
688.2	244.4
688.4	242.7
688.6	240.2
688.8	238.4
689.0	236.6
689.2	235.4
689.4	233.4
689.6	232.7
689.8	231.3
690.0	230.3
690.2	227.6
690.4	225.8
690.6	223.6
690.8	223.4
691.0	222.7
691.2	222.8
691.4	219.9
691.6	216.5
691.8	212.7
692.0	212.2
692.2	211.2
692.4	210.8
692.6	210.3
692.8	209.4
693.0	207.3
693.2	205.4
693.4	202.8
693.6	201.4
693.8	199.9
694.0	199.3
694.2	197.9
694.4	195.9
694.6	194.4
694.8	194.0
695.0	192.0
695.2	190.9
695.4	190.0
695.6	188.6
695.8	186.9
696.0	186.1
696.2	184.5
696.4	183.2
696.6	182.5
696.8	181.2
697.0	179.6
697.2	178.6
697.4	177.4
697.6	176.3
697.8	175.1
698.0	173.5
698.2	172.5
698.4	171.5
698.6	171.0
698.8	170.9
699.0	169.3
699.2	167.1
699.4	165.3
699.6	164.3
699.8	162.9
700.0	163.2
700.2	162.9
700.4	162.1
700.6	160.1
700.8	160.1
701.0	158.4
701.2	157.7
701.4	156.3
701.6	154.0
701.8	152.2
702.0	152.6
702.2	152.5
702.4	152.6
702.6	152.0
702.8	150.8
703.0	149.6
703.2	148.6
703.4	147.2
703.6	146.0
703.8	145.0
704.0	144.5
704.2	143.9
704.4	142.8
704.6	142.0
704.8	141.6
705.0	140.3
705.2	139.2
705.4	138.6
705.6	137.5
705.8	136.8
706.0	136.0
706.2	134.5
706.4	132.9
706.6	131.9
706.8	132.1
707.0	131.7
707.2	131.2
707.4	130.6
707.6	130.1
707.8	128.5
708.0	127.9
708.2	126.6
708.4	125.0
708.6	123.4
708.8	122.9
709.0	122.0
709.2	121.4
709.4	120.9
709.6	119.9
709.8	118.6
710.0	117.5
710.2	116.7
710.4	115.9
710.6	115.3
710.8	115.1
711.0	114.3
711.2	114.5
711.4	113.5
711.6	112.4
711.8	111.0
712.0	110.4
712.2	109.3
712.4	109.9
712.6	109.0
712.8	108.0
713.0	106.8
713.2	106.1
713.4	105.5
713.6	105.3
713.8	104.5
714.0	103.4
714.2	102.4
714.4	101.9
714.6	101.4
714.8	100.7
715.0	100.2
715.2	98.97
715.4	97.72
715.6	96.96
715.8	96.14
716.0	95.57
716.2	95.07
716.4	94.50
716.6	93.93
716.8	94.12
717.0	93.47
717.2	92.31
717.4	91.61
717.6	90.48
717.8	89.36
718.0	88.91
718.2	87.65
718.4	86.84
718.6	86.76
718.8	85.60
719.0	84.76
719.2	84.56
719.4	84.13
719.6	83.71
719.8	83.13
720.0	82.96
720.2	82.10
720.4	80.89
720.6	80.61
720.8	80.20
721.0	79.58
721.2	78.93
721.4	77.07
721.6	75.43
721.8	75.40
722.0	75.02
722.2	74.85
722.4	74.08
722.6	73.65
722.8	73.00
723.0	72.83
723.2	72.25
723.4	72.13
723.6	71.65
723.8	71.27
724.0	70.11
724.2	69.53
724.4	69.06
724.6	68.82
724.8	68.46
725.0	67.95
725.2	67.07
725.4	66.34
725.6	65.66
725.8	65.00
726.0	64.36
726.2	63.96
726.4	63.57
726.6	63.29
726.8	62.84
727.0	61.80
727.2	61.49
727.4	61.16
727.6	60.75
727.8	60.74
728.0	60.33
728.2	59.00
728.4	58.69
728.6	58.32
728.8	57.98
729.0	58.05
729.2	57.21
729.4	56.13
729.6	55.59
729.8	55.13
730.0	55.01
730.2	54.56
730.4	53.83
730.6	53.36
730.8	52.75
731.0	51.84
731.2	51.41
731.4	50.52
731.6	50.46
731.8	51.12
732.0	50.85
732.2	50.05
732.4	50.01
732.6	49.11
732.8	49.00
733.0	49.09
733.2	48.25
733.4	47.29
733.6	46.47
733.8	45.38
734.0	45.15
734.2	45.01
734.4	45.01
734.6	44.97
734.8	44.55
735.0	44.47
735.2	44.54
735.4	44.47
735.6	44.46
735.8	43.87
736.0	43.32
736.2	42.86
736.4	42.70
736.6	42.57
736.8	41.97
737.0	40.92
737.2	40.37
737.4	39.95
737.6	39.85
737.8	40.35
738.0	39.98
738.2	39.51
738.4	39.00
738.6	38.64
738.8	38.04
739.0	38.01
739.2	37.62
739.4	37.28
739.6	36.96
739.8	36.49
740.0	36.01
740.2	36.08
740.4	35.81
740.6	35.91
740.8	35.70
741.0	34.76
741.2	34.28
741.4	34.07
741.6	34.16
741.8	34.45
742.0	33.81
742.2	33.43
742.4	33.24
742.6	32.85
742.8	32.47
743.0	32.03
743.2	31.96
743.4	32.05
743.6	32.09
743.8	32.03
744.0	31.73
744.2	31.02
744.4	30.83
744.6	30.33
744.8	30.03
745.0	29.87
745.2	29.76
745.4	29.07
745.6	28.72
745.8	28.58
746.0	28.59
746.2	28.69
746.4	28.29
746.6	27.82
746.8	27.38
747.0	27.03
747.2	26.62
747.4	26.66
747.6	26.91
747.8	27.11
748.0	26.79
748.2	26.42
748.4	26.09
748.6	25.55
748.8	25.61
749.0	25.54
749.2	25.10
749.4	24.90
749.6	24.72
749.8	24.36
750.0	24.29
750.2	24.08
750.4	23.79
750.6	23.83
750.8	24.08
751.0	24.04
751.2	23.90
751.4	23.14
751.6	22.55
751.8	22.24
752.0	22.47
752.2	22.59
752.4	22.70
752.6	22.09
752.8	21.72
753.0	21.25
753.2	21.15
753.4	21.13
753.6	20.97
753.8	20.77
754.0	20.65
754.2	20.27
754.4	20.39
754.6	20.28
754.8	19.97
755.0	19.84
755.2	19.64
755.4	19.25
755.6	19.54
755.8	19.89
756.0	19.68
756.2	19.61
756.4	19.15
756.6	18.83
756.8	18.61
757.0	18.14
757.2	17.64
757.4	17.22
757.6	16.80
757.8	17.30
758.0	17.78
758.2	18.13
758.4	18.01
758.6	17.51
758.8	17.20
759.0	17.10
759.2	17.00
759.4	17.05
759.6	16.76
759.8	16.48
760.0	16.44
760.2	16.44
760.4	16.44
760.6	16.56
760.8	16.42
761.0	16.03
761.2	15.51
761.4	15.43
761.6	15.43
761.8	15.30
762.0	15.02
762.2	14.75
762.4	14.41
762.6	14.40
762.8	14.27
763.0	14.09
763.2	14.00
763.4	14.32
763.6	14.38
763.8	14.49
764.0	14.16
764.2	13.99
764.4	13.84
764.6	14.11
764.8	13.95
765.0	14.14
765.2	13.89
765.4	13.47
765.6	13.20
765.8	13.06
766.0	12.82
766.2	13.05
766.4	12.98
766.6	12.55
766.8	12.73
767.0	12.63
767.2	12.34
767.4	12.21
767.6	12.07
767.8	11.92
768.0	12.28
768.2	12.15
768.4	12.13
768.6	11.86
768.8	11.59
769.0	11.61
769.2	11.79
769.4	11.63
769.6	11.78
769.8	11.66
770.0	11.33
770.2	11.19
770.4	11.16
770.6	10.99
770.8	10.87
771.0	10.92
771.2	10.54
771.4	10.44
771.6	10.34
771.8	9.968
772.0	9.810
772.2	9.970
772.4	10.06
772.6	10.26
772.8	10.09
773.0	9.643
773.2	9.439
773.4	9.625
773.6	9.875
773.8	9.981
774.0	9.941
774.2	9.703
774.4	9.528
774.6	9.402
774.8	9.183
775.0	9.011
775.2	8.916
775.4	8.882
775.6	8.880
775.8	8.744
776.0	8.908
776.2	8.896
776.4	8.860
776.6	8.815
776.8	8.751
777.0	8.677
777.2	8.843
777.4	8.736
777.6	8.707
777.8	8.543
778.0	8.511
778.2	8.347
778.4	8.301
778.6	8.155
778.8	8.147
779.0	8.003
779.2	8.100
779.4	8.073
779.6	8.047
779.8	7.903
780.0	7.633
780.2	7.623
780.4	7.792
780.6	7.940
780.8	7.962
781.0	7.919
781.2	7.609
781.4	7.630
781.6	7.585
781.8	7.512
782.0	7.391
782.2	7.362
782.4	6.966
782.6	6.892
782.8	7.026
783.0	6.916
783.2	6.943
783.4	7.053
783.6	7.053
783.8	7.289
784.0	7.379
784.2	7.074
784.4	6.743
784.6	6.425
784.8	6.315
785.0	6.513
785.2	6.702
785.4	6.788
785.6	6.787
785.8	6.744
786.0	6.688
786.2	6.771
786.4	6.717
786.6	6.745
786.8	6.752
787.0	6.863
787.2	6.862
787.4	6.714
787.6	6.432
787.8	6.212
788.0	5.985
788.2	6.040
788.4	6.118
788.6	6.177
788.8	6.217
789.0	6.167
789.2	6.062
789.4	5.970
789.6	6.017
789.8	6.098
790.0	5.891
790.2	5.953
790.4	6.001
790.6	6.115
790.8	6.291
791.0	6.260
791.2	5.950
791.4	5.780
791.6	5.782
791.8	5.831
792.0	5.914
792.2	5.832
792.4	5.718
792.6	5.436
792.8	5.608
793.0	5.647
793.2	5.691
793.4	5.746
793.6	5.803
793.8	5.729
794.0	5.645
794.2	5.567
794.4	5.505
794.6	5.475
794.8	5.623
795.0	5.834
795.2	5.656
795.4	5.560
795.6	5.467
795.8	5.328
796.0	5.275
796.2	5.477
796.4	5.364
796.6	5.234
796.8	5.107
797.0	5.059
797.2	5.030
797.4	5.045
797.6	4.978
797.8	4.827
798.0	4.997
798.2	5.116
798.4	5.300
798.6	5.296
798.8	5.332
799.0	5.191
799.2	5.191
799.4	5.031
799.6	5.062
799.8	5.101
800.0	5.202
800.2	5.250
800.4	5.201
800.6	5.051
800.8	5.033
801.0	4.993
801.2	4.971
801.4	4.915
801.6	4.876
801.8	4.613
802.0	4.488
802.2	4.444
802.4	4.424
802.6	4.638
802.8	4.806
803.0	4.809
803.2	4.941
803.4	4.863
803.6	4.816
803.8	4.824
804.0	4.730
804.2	4.525
804.4	4.470
804.6	4.414
804.8	4.452
805.0	4.383
805.2	4.514
805.4	4.417
805.6	4.350
805.8	4.311
806.0	4.343
806.2	4.333
806.4	4.419
806.6	4.359
806.8	4.304
807.0	4.249
807.2	4.441
807.4	4.443
807.6	4.339
807.8	4.129
808.0	4.053
808.2	4.074
808.4	4.221
808.6	4.296
808.8	4.374
809.0	4.211
809.2	4.083
809.4	4.067
809.6	4.053
809.8	4.139
810.0	4.346
810.2	4.277
810.4	4.194
810.6	4.222
810.8	4.146
811.0	4.154
811.2	4.270
811.4	4.160
811.6	3.858
811.8	3.691
812.0	3.664
812.2	3.671
812.4	3.752
812.6	3.835
812.8	3.748
813.0	3.809
813.2	3.922
813.4	3.874
813.6	3.791
813.8	3.653
814.0	3.486
814.2	3.468
814.4	3.579
814.6	3.782
814.8	3.932
815.0	3.886
815.2	3.727
815.4	3.576
815.6	3.547
815.8	3.558
816.0	3.578
816.2	3.532
816.4	3.487
816.6	3.419
816.8	3.439
817.0	3.565
817.2	3.625
817.4	3.495
817.6	3.358
817.8	3.304
818.0	3.243
818.2	3.398
818.4	3.449
818.6	3.409
818.8	3.460
819.0	3.551
819.2	3.528
819.4	3.568
819.6	3.591
819.8	3.403
820.0	3.230
820.2	3.070
820.4	2.932
820.6	2.917
820.8	3.131
821.0	3.200
821.2	3.256
821.4	3.233
821.6	3.122
821.8	3.043
822.0	2.940
822.2	2.897
822.4	2.915
822.6	2.842
822.8	2.977
823.0	3.048
823.2	2.864
823.4	2.881
823.6	2.934
823.8	2.852
824.0	3.012
824.2	3.041
824.4	2.948
824.6	2.932
824.8	3.018
825.0	2.958
825.2	2.961
825.4	2.847
825.6	2.840
825.8	2.788
826.0	2.751
826.2	2.692
826.4	2.628
826.6	2.556
826.8	2.587
827.0	2.593
827.2	2.628
827.4	2.649
827.6	2.678
827.8	2.732
828.0	2.611
828.2	2.556
828.4	2.602
828.6	2.622
828.8	2.600
829.0	2.629
829.2	2.464
829.4	2.404
829.6	2.506
829.8	2.690
830.0	2.694
830.2	2.669
830.4	2.385
830.6	2.220
830.8	2.202
831.0	2.301
831.2	2.249
831.4	2.186
831.6	2.134
831.8	2.210
832.0	2.230
832.2	2.190
832.4	2.087
832.6	2.088
832.8	2.160
833.0	2.216
833.2	2.185
833.4	2.087
833.6	2.028
833.8	2.040
834.0	2.035
834.2	1.990
834.4	1.890
834.6	1.917
834.8	1.912
835.0	1.943
835.2	2.005
835.4	2.097
835.6	2.078
835.8	2.147
836.0	2.101
836.2	2.076
836.4	2.033
836.6	1.968
836.8	1.856
837.0	1.915
837.2	1.855
837.4	1.984
837.6	2.068
837.8	2.020
838.0	1.886
838.2	1.844
838.4	1.679
838.6	1.728
838.8	1.754
839.0	1.729
839.2	1.668
839.4	1.691
839.6	1.688
839.8	1.714
840.0	1.783
840.2	1.836
840.4	1.828
840.6	1.796
840.8	1.779
841.0	1.691
841.2	1.668
841.4	1.671
841.6	1.607
841.8	1.536
842.0	1.619
842.2	1.673
842.4	1.591
842.6	1.648
842.8	1.561
843.0	1.466
843.2	1.589
843.4	1.594
843.6	1.526
843.8	1.617
844.0	1.618
844.2	1.630
844.4	1.670
844.6	1.593
844.8	1.565
845.0	1.575
845.2	1.546
845.4	1.579
845.6	1.516
845.8	1.424
846.0	1.369
846.2	1.385
846.4	1.357
846.6	1.472
846.8	1.510
847.0	1.492
847.2	1.494
847.4	1.431
847.6	1.404
847.8	1.481
848.0	1.530
848.2	1.460
848.4	1.561
848.6	1.533
848.8	1.433
849.0	1.451
849.2	1.425
849.4	1.258
849.6	1.327
849.8	1.321
850.0	1.298
850.2	1.363
850.4	1.349
850.6	1.335
850.8	1.387
851.0	1.378
851.2	1.351
851.4	1.312
851.6	1.257
851.8	1.223
852.0	1.314
852.2	1.366
852.4	1.397
852.6	1.372
852.8	1.349
853.0	1.263
853.2	1.293
853.4	1.296
853.6	1.300
853.8	1.206
854.0	1.167
854.2	1.077
854.4	1.101
854.6	1.128
854.8	1.152
855.0	1.230
855.2	1.273
855.4	1.235
855.6	1.214
855.8	1.149
856.0	1.138
856.2	1.233
856.4	1.277
856.6	1.294
856.8	1.288
857.0	1.207
857.2	1.169
857.4	1.200
857.6	1.190
857.8	1.170
858.0	1.154
858.2	1.175
858.4	1.218
858.6	1.279
858.8	1.362
859.0	1.379
859.2	1.308
859.4	1.330
859.6	1.293
859.8	1.268
860.0	1.311
860.2	1.315
860.4	1.272
860.6	1.342
860.8	1.279
861.0	1.254
861.2	1.162
861.4	1.167
861.6	1.119
861.8	1.216
862.0	1.205
862.2	1.232
862.4	1.222
862.6	1.258
862.8	1.154
863.0	1.144
863.2	1.123
863.4	1.156
863.6	1.191
863.8	1.286
864.0	1.274
864.2	1.156
864.4	1.056
864.6	1.029
864.8	0.990
865.0	1.136
865.2	1.151
865.4	1.090
865.6	1.129
865.8	1.177
866.0	1.184
866.2	1.277
866.4	1.183
866.6	1.114
866.8	1.080
867.0	1.024
867.2	0.993
867.4	1.045
867.6	1.075
867.8	1.202
868.0	1.323
868.2	1.331
868.4	1.294
868.6	1.212
868.8	1.103
869.0	1.093
869.2	1.119
869.4	1.063
869.6	1.062
869.8	1.099
870.0	1.108
870.2	1.126
870.4	1.105
870.6	1.039
870.8	0.961
871.0	1.047
871.2	1.056
871.4	1.092
871.6	1.067
871.8	1.069
872.0	1.024
872.2	1.112
872.4	1.105
872.6	1.147
872.8	1.130
873.0	1.119
873.2	1.079
873.4	1.090
873.6	1.113
873.8	1.093
874.0	1.070
874.2	1.074
874.4	1.011
874.6	1.092
874.8	1.177
875.0	1.177
875.2	1.142
875.4	1.186
875.6	1.122
875.8	1.246
876.0	1.318
876.2	1.300
876.4	1.221
876.6	1.172
876.8	1.047
877.0	1.035
877.2	1.040
877.4	1.036
877.6	1.065
877.8	1.090
878.0	1.070
878.2	1.105
878.4	1.030
878.6	1.030
878.8	1.036
879.0	1.081
879.2	1.161
879.4	1.233
879.6	1.184
879.8	1.155
880.0	1.105
880.2	1.106
880.4	1.153
880.6	1.185
880.8	1.102
881.0	1.094
881.2	0.985
881.4	0.945
881.6	1.035
881.8	1.078
882.0	0.987
882.2	1.040
882.4	0.970
882.6	1.033
882.8	1.138
883.0	1.237
883.2	1.212
883.4	1.193
883.6	1.127
883.8	1.077
884.0	1.007
884.2	1.053
884.4	1.105
884.6	1.170
884.8	1.218
885.0	1.163
885.2	1.089
885.4	1.012
885.6	1.044
885.8	1.117
886.0	1.198
886.2	1.205
886.4	1.134
886.6	1.019
886.8	0.936
887.0	0.973
887.2	1.049
887.4	1.093
887.6	1.088
887.8	1.118
888.0	1.104
888.2	1.167
888.4	1.234
888.6	1.231
888.8	1.146
889.0	1.081
889.2	1.023
889.4	0.985
889.6	1.050
889.8	1.026
890.0	1.035
890.2	1.126
890.4	1.177
890.6	1.165
890.8	1.206
891.0	1.141
891.2	1.127
891.4	1.154
891.6	1.116
891.8	1.017
892.0	1.028
892.2	0.978
892.4	1.024
892.6	1.031
892.8	1.091
893.0	1.091
893.2	1.070
893.4	0.997
893.6	0.962
893.8	0.983
894.0	1.139
894.2	1.222
894.4	1.172
894.6	1.193
894.8	1.169
895.0	1.207
895.2	1.223
895.4	1.199
895.6	1.097
895.8	1.132
896.0	1.189
896.2	1.201
896.4	1.150
896.6	1.089
896.8	0.940
897.0	0.927
897.2	0.982
897.4	1.029
897.6	1.165
897.8	1.275
898.0	1.248
898.2	1.227
898.4	1.176
898.6	1.055
898.8	1.049
899.0	1.084
899.2	1.131
899.4	1.200
899.6	1.248
899.8	1.218
900.0	1.061

