Sample:	'20211010A(EM)
File name:	G-CDS 520V.FDS
Run date:	'15:54:33, 03/23/2023
Operator:	Administrator
Comment:	'

Instrument
Model:	F-4700 FL Spectrophotometer
Serial number:	2019-001
ROM Version:	5J24010 00

Instrument parameters
Measurement type:	Wavelength scan
Scan mode:	Emission
Data mode:	Fluorescence
EX WL:	400.0 nm
EM  Start WL:	420.0 nm
EM  End WL:	850.0 nm
Scan speed:	1200 nm/min
Delay:	0.0 s
EX Slit:	10.0 nm
EM Slit:	10.0 nm
PMT Voltage:	520 V
Response:	0.002 s
Corrected spectra:	Off
Shutter control:	On

Processing performed
Savitsky-Golay smoothed
Smoothing order:	3
Number of points:	7
Number of times:	1

Peak integration
Integration method:	Rectangular
Sensitivity:	1
Threshold:	1.000

Peaks
No.	Start(nm)	Apex(nm)	End(nm)	Height(Data)	Valley(nm)	Valley(Data)
1	420.0	539.8	762.8	7113	762.8	10.66
2	762.8	763.6	783.8	11.72	783.8	6.748
3	783.8	802.0	850.0	11.00	850.0	2.451

Data points
nm	Data
420.0	3.666
420.2	3.567
420.4	3.611
420.6	3.718
420.8	3.796
421.0	3.773
421.2	3.613
421.4	3.645
421.6	3.821
421.8	3.959
422.0	4.008
422.2	4.097
422.4	4.009
422.6	3.781
422.8	3.733
423.0	3.783
423.2	3.717
423.4	3.757
423.6	3.813
423.8	3.825
424.0	4.132
424.2	4.225
424.4	4.149
424.6	4.076
424.8	4.062
425.0	4.106
425.2	4.441
425.4	4.489
425.6	4.373
425.8	4.154
426.0	4.093
426.2	3.943
426.4	4.107
426.6	4.135
426.8	4.075
427.0	3.922
427.2	4.121
427.4	4.265
427.6	4.187
427.8	4.248
428.0	4.209
428.2	4.128
428.4	4.265
428.6	4.291
428.8	4.131
429.0	4.171
429.2	4.244
429.4	4.325
429.6	4.371
429.8	4.413
430.0	4.414
430.2	4.259
430.4	4.269
430.6	4.457
430.8	4.500
431.0	4.577
431.2	4.573
431.4	4.623
431.6	4.656
431.8	4.890
432.0	4.856
432.2	4.688
432.4	4.518
432.6	4.486
432.8	4.342
433.0	4.617
433.2	4.632
433.4	4.493
433.6	4.468
433.8	4.566
434.0	4.630
434.2	4.753
434.4	4.617
434.6	4.619
434.8	4.631
435.0	4.816
435.2	5.055
435.4	4.947
435.6	5.069
435.8	5.262
436.0	5.195
436.2	5.305
436.4	5.200
436.6	5.061
436.8	5.034
437.0	4.982
437.2	5.076
437.4	5.322
437.6	5.300
437.8	5.272
438.0	5.278
438.2	5.388
438.4	5.537
438.6	5.705
438.8	5.691
439.0	5.695
439.2	5.916
439.4	5.950
439.6	5.771
439.8	5.737
440.0	5.780
440.2	6.040
440.4	6.207
440.6	6.193
440.8	6.134
441.0	6.122
441.2	6.077
441.4	6.163
441.6	6.142
441.8	6.308
442.0	6.358
442.2	6.554
442.4	6.331
442.6	6.475
442.8	6.674
443.0	6.892
443.2	7.093
443.4	7.332
443.6	7.079
443.8	7.273
444.0	7.286
444.2	7.128
444.4	7.042
444.6	7.059
444.8	6.812
445.0	7.119
445.2	7.323
445.4	7.261
445.6	7.339
445.8	7.792
446.0	7.798
446.2	8.059
446.4	7.940
446.6	7.918
446.8	7.803
447.0	8.066
447.2	8.168
447.4	8.423
447.6	8.639
447.8	8.790
448.0	8.520
448.2	8.497
448.4	8.844
448.6	8.977
448.8	9.170
449.0	9.123
449.2	9.141
449.4	9.280
449.6	9.540
449.8	9.430
450.0	9.540
450.2	9.465
450.4	9.697
450.6	10.06
450.8	9.955
451.0	9.913
451.2	9.985
451.4	9.863
451.6	10.22
451.8	10.50
452.0	10.51
452.2	10.09
452.4	9.921
452.6	10.26
452.8	10.94
453.0	11.60
453.2	12.00
453.4	11.60
453.6	11.17
453.8	10.85
454.0	11.10
454.2	11.57
454.4	12.17
454.6	12.95
454.8	12.88
455.0	12.50
455.2	12.32
455.4	12.23
455.6	12.38
455.8	12.94
456.0	12.94
456.2	12.90
456.4	12.95
456.6	13.14
456.8	13.58
457.0	14.21
457.2	14.32
457.4	14.53
457.6	14.50
457.8	14.47
458.0	14.78
458.2	15.06
458.4	15.33
458.6	15.69
458.8	15.54
459.0	15.77
459.2	16.03
459.4	16.09
459.6	16.92
459.8	17.27
460.0	17.46
460.2	17.78
460.4	17.70
460.6	17.63
460.8	18.51
461.0	19.00
461.2	19.66
461.4	20.23
461.6	20.61
461.8	20.37
462.0	20.70
462.2	20.81
462.4	21.04
462.6	21.65
462.8	22.87
463.0	23.07
463.2	23.64
463.4	23.88
463.6	24.32
463.8	24.64
464.0	25.59
464.2	26.31
464.4	26.95
464.6	27.50
464.8	28.27
465.0	28.48
465.2	28.82
465.4	29.35
465.6	30.04
465.8	31.32
466.0	32.37
466.2	32.94
466.4	33.48
466.6	34.45
466.8	35.90
467.0	37.35
467.2	37.47
467.4	37.41
467.6	37.85
467.8	39.02
468.0	41.28
468.2	43.42
468.4	44.27
468.6	45.05
468.8	45.76
469.0	46.48
469.2	47.85
469.4	49.45
469.6	50.68
469.8	52.36
470.0	54.29
470.2	55.59
470.4	57.17
470.6	59.17
470.8	59.83
471.0	60.75
471.2	62.14
471.4	63.60
471.6	65.40
471.8	68.12
472.0	70.42
472.2	72.30
472.4	73.84
472.6	75.14
472.8	76.69
473.0	79.06
473.2	81.82
473.4	83.99
473.6	85.88
473.8	87.37
474.0	89.78
474.2	92.11
474.4	94.51
474.6	97.71
474.8	100.5
475.0	102.8
475.2	105.5
475.4	108.2
475.6	111.6
475.8	115.4
476.0	119.0
476.2	122.5
476.4	125.2
476.6	127.4
476.8	129.7
477.0	133.5
477.2	137.7
477.4	142.0
477.6	146.2
477.8	149.5
478.0	153.0
478.2	158.1
478.4	161.6
478.6	164.0
478.8	167.9
479.0	173.2
479.2	178.2
479.4	182.5
479.6	187.0
479.8	191.4
480.0	196.2
480.2	204.0
480.4	210.9
480.6	216.3
480.8	222.7
481.0	228.7
481.2	234.4
481.4	239.7
481.6	245.9
481.8	251.2
482.0	256.3
482.2	262.2
482.4	268.0
482.6	273.2
482.8	281.0
483.0	288.5
483.2	295.5
483.4	304.8
483.6	313.3
483.8	322.2
484.0	331.0
484.2	339.9
484.4	346.2
484.6	354.7
484.8	364.3
485.0	374.1
485.2	384.3
485.4	394.3
485.6	403.5
485.8	413.8
486.0	424.2
486.2	434.6
486.4	442.7
486.6	453.5
486.8	464.5
487.0	476.5
487.2	488.9
487.4	500.1
487.6	509.6
487.8	523.3
488.0	535.0
488.2	550.9
488.4	564.0
488.6	576.7
488.8	588.4
489.0	600.6
489.2	615.3
489.4	634.4
489.6	650.4
489.8	668.0
490.0	682.4
490.2	697.3
490.4	709.8
490.6	725.3
490.8	741.3
491.0	760.2
491.2	779.7
491.4	802.8
491.6	819.6
491.8	838.6
492.0	856.5
492.2	875.9
492.4	894.2
492.6	913.8
492.8	933.7
493.0	957.4
493.2	978.8
493.4	1002
493.6	1022
493.8	1039
494.0	1058
494.2	1080
494.4	1103
494.6	1128
494.8	1154
495.0	1179
495.2	1204
495.4	1228
495.6	1252
495.8	1276
496.0	1302
496.2	1330
496.4	1355
496.6	1381
496.8	1405
497.0	1433
497.2	1462
497.4	1489
497.6	1515
497.8	1543
498.0	1572
498.2	1603
498.4	1635
498.6	1665
498.8	1696
499.0	1729
499.2	1761
499.4	1791
499.6	1823
499.8	1859
500.0	1890
500.2	1925
500.4	1958
500.6	1991
500.8	2030
501.0	2069
501.2	2102
501.4	2133
501.6	2164
501.8	2200
502.0	2238
502.2	2275
502.4	2306
502.6	2339
502.8	2373
503.0	2410
503.2	2448
503.4	2486
503.6	2524
503.8	2564
504.0	2604
504.2	2645
504.4	2682
504.6	2723
504.8	2764
505.0	2806
505.2	2846
505.4	2883
505.6	2918
505.8	2959
506.0	2992
506.2	3038
506.4	3080
506.6	3118
506.8	3151
507.0	3187
507.2	3220
507.4	3269
507.6	3316
507.8	3359
508.0	3399
508.2	3439
508.4	3477
508.6	3513
508.8	3550
509.0	3590
509.2	3637
509.4	3684
509.6	3729
509.8	3765
510.0	3804
510.2	3847
510.4	3891
510.6	3935
510.8	3982
511.0	4020
511.2	4061
511.4	4105
511.6	4143
511.8	4182
512.0	4217
512.2	4255
512.4	4290
512.6	4334
512.8	4378
513.0	4422
513.2	4457
513.4	4497
513.6	4533
513.8	4578
514.0	4619
514.2	4656
514.4	4687
514.6	4722
514.8	4762
515.0	4814
515.2	4859
515.4	4892
515.6	4927
515.8	4963
516.0	5000
516.2	5043
516.4	5080
516.6	5116
516.8	5155
517.0	5184
517.2	5214
517.4	5243
517.6	5272
517.8	5315
518.0	5354
518.2	5391
518.4	5420
518.6	5456
518.8	5485
519.0	5514
519.2	5550
519.4	5590
519.6	5620
519.8	5656
520.0	5685
520.2	5705
520.4	5733
520.6	5769
520.8	5798
521.0	5834
521.2	5874
521.4	5912
521.6	5941
521.8	5967
522.0	5989
522.2	6016
522.4	6046
522.6	6085
522.8	6107
523.0	6130
523.2	6149
523.4	6163
523.6	6181
523.8	6209
524.0	6234
524.2	6275
524.4	6305
524.6	6331
524.8	6346
525.0	6366
525.2	6390
525.4	6412
525.6	6438
525.8	6466
526.0	6479
526.2	6501
526.4	6524
526.6	6539
526.8	6563
527.0	6587
527.2	6606
527.4	6634
527.6	6655
527.8	6676
528.0	6691
528.2	6699
528.4	6707
528.6	6721
528.8	6732
529.0	6760
529.2	6784
529.4	6794
529.6	6806
529.8	6813
530.0	6819
530.2	6842
530.4	6855
530.6	6858
530.8	6871
531.0	6885
531.2	6903
531.4	6919
531.6	6927
531.8	6935
532.0	6947
532.2	6962
532.4	6969
532.6	6976
532.8	6983
533.0	6993
533.2	7010
533.4	7027
533.6	7032
533.8	7038
534.0	7039
534.2	7041
534.4	7043
534.6	7044
534.8	7044
535.0	7047
535.2	7047
535.4	7053
535.6	7059
535.8	7073
536.0	7084
536.2	7094
536.4	7095
536.6	7099
536.8	7097
537.0	7099
537.2	7101
537.4	7103
537.6	7103
537.8	7110
538.0	7103
538.2	7105
538.4	7103
538.6	7105
538.8	7106
539.0	7111
539.2	7108
539.4	7109
539.6	7105
539.8	7113
540.0	7102
540.2	7092
540.4	7082
540.6	7076
540.8	7076
541.0	7078
541.2	7069
541.4	7061
541.6	7062
541.8	7063
542.0	7064
542.2	7058
542.4	7053
542.6	7045
542.8	7046
543.0	7045
543.2	7036
543.4	7032
543.6	7024
543.8	7011
544.0	6999
544.2	6990
544.4	6975
544.6	6965
544.8	6955
545.0	6948
545.2	6943
545.4	6942
545.6	6942
545.8	6932
546.0	6921
546.2	6903
546.4	6888
546.6	6883
546.8	6881
547.0	6879
547.2	6875
547.4	6869
547.6	6868
547.8	6867
548.0	6849
548.2	6830
548.4	6803
548.6	6780
548.8	6771
549.0	6761
549.2	6746
549.4	6732
549.6	6720
549.8	6705
550.0	6699
550.2	6684
550.4	6666
550.6	6656
550.8	6648
551.0	6646
551.2	6642
551.4	6627
551.6	6614
551.8	6602
552.0	6592
552.2	6586
552.4	6580
552.6	6561
552.8	6541
553.0	6509
553.2	6493
553.4	6483
553.6	6476
553.8	6464
554.0	6446
554.2	6424
554.4	6409
554.6	6392
554.8	6379
555.0	6362
555.2	6346
555.4	6337
555.6	6324
555.8	6313
556.0	6303
556.2	6290
556.4	6276
556.6	6263
556.8	6250
557.0	6232
557.2	6216
557.4	6204
557.6	6190
557.8	6179
558.0	6165
558.2	6139
558.4	6114
558.6	6088
558.8	6067
559.0	6047
559.2	6032
559.4	6016
559.6	6007
559.8	5997
560.0	5986
560.2	5963
560.4	5946
560.6	5924
560.8	5911
561.0	5887
561.2	5874
561.4	5863
561.6	5855
561.8	5846
562.0	5826
562.2	5802
562.4	5783
562.6	5770
562.8	5753
563.0	5733
563.2	5706
563.4	5687
563.6	5669
563.8	5659
564.0	5642
564.2	5619
564.4	5600
564.6	5571
564.8	5550
565.0	5533
565.2	5517
565.4	5502
565.6	5490
565.8	5470
566.0	5451
566.2	5436
566.4	5423
566.6	5410
566.8	5397
567.0	5377
567.2	5345
567.4	5328
567.6	5308
567.8	5296
568.0	5287
568.2	5269
568.4	5248
568.6	5231
568.8	5217
569.0	5203
569.2	5187
569.4	5166
569.6	5139
569.8	5114
570.0	5096
570.2	5075
570.4	5058
570.6	5041
570.8	5018
571.0	5001
571.2	4989
571.4	4966
571.6	4953
571.8	4935
572.0	4914
572.2	4890
572.4	4877
572.6	4852
572.8	4836
573.0	4823
573.2	4810
573.4	4787
573.6	4773
573.8	4752
574.0	4733
574.2	4716
574.4	4701
574.6	4674
574.8	4654
575.0	4629
575.2	4616
575.4	4600
575.6	4582
575.8	4557
576.0	4539
576.2	4525
576.4	4518
576.6	4503
576.8	4489
577.0	4467
577.2	4445
577.4	4430
577.6	4415
577.8	4399
578.0	4383
578.2	4368
578.4	4335
578.6	4309
578.8	4290
579.0	4279
579.2	4265
579.4	4251
579.6	4227
579.8	4203
580.0	4180
580.2	4162
580.4	4143
580.6	4123
580.8	4113
581.0	4095
581.2	4075
581.4	4053
581.6	4031
581.8	4014
582.0	4002
582.2	3994
582.4	3981
582.6	3963
582.8	3947
583.0	3926
583.2	3907
583.4	3897
583.6	3881
583.8	3859
584.0	3841
584.2	3825
584.4	3812
584.6	3800
584.8	3785
585.0	3760
585.2	3740
585.4	3721
585.6	3700
585.8	3686
586.0	3671
586.2	3653
586.4	3643
586.6	3623
586.8	3604
587.0	3587
587.2	3571
587.4	3558
587.6	3550
587.8	3534
588.0	3517
588.2	3501
588.4	3480
588.6	3465
588.8	3453
589.0	3438
589.2	3420
589.4	3403
589.6	3383
589.8	3369
590.0	3359
590.2	3344
590.4	3322
590.6	3293
590.8	3275
591.0	3265
591.2	3257
591.4	3247
591.6	3230
591.8	3205
592.0	3190
592.2	3180
592.4	3166
592.6	3156
592.8	3138
593.0	3117
593.2	3105
593.4	3094
593.6	3077
593.8	3059
594.0	3042
594.2	3027
594.4	3019
594.6	3009
594.8	2998
595.0	2981
595.2	2964
595.4	2946
595.6	2931
595.8	2918
596.0	2909
596.2	2902
596.4	2889
596.6	2873
596.8	2854
597.0	2832
597.2	2814
597.4	2802
597.6	2791
597.8	2782
598.0	2773
598.2	2758
598.4	2745
598.6	2727
598.8	2708
599.0	2691
599.2	2678
599.4	2668
599.6	2662
599.8	2651
600.0	2637
600.2	2623
600.4	2605
600.6	2589
600.8	2574
601.0	2564
601.2	2552
601.4	2543
601.6	2533
601.8	2516
602.0	2498
602.2	2486
602.4	2471
602.6	2458
602.8	2446
603.0	2436
603.2	2423
603.4	2410
603.6	2401
603.8	2388
604.0	2376
604.2	2364
604.4	2352
604.6	2340
604.8	2333
605.0	2320
605.2	2305
605.4	2286
605.6	2273
605.8	2260
606.0	2252
606.2	2238
606.4	2231
606.6	2220
606.8	2208
607.0	2193
607.2	2181
607.4	2163
607.6	2155
607.8	2143
608.0	2131
608.2	2119
608.4	2107
608.6	2097
608.8	2084
609.0	2074
609.2	2061
609.4	2056
609.6	2042
609.8	2033
610.0	2024
610.2	2013
610.4	2001
610.6	1992
610.8	1975
611.0	1961
611.2	1953
611.4	1938
611.6	1932
611.8	1921
612.0	1909
612.2	1897
612.4	1885
612.6	1868
612.8	1860
613.0	1849
613.2	1841
613.4	1832
613.6	1821
613.8	1807
614.0	1797
614.2	1787
614.4	1780
614.6	1772
614.8	1764
615.0	1753
615.2	1741
615.4	1727
615.6	1717
615.8	1708
616.0	1701
616.2	1689
616.4	1682
616.6	1669
616.8	1657
617.0	1649
617.2	1641
617.4	1631
617.6	1625
617.8	1612
618.0	1601
618.2	1590
618.4	1581
618.6	1571
618.8	1561
619.0	1553
619.2	1546
619.4	1537
619.6	1528
619.8	1514
620.0	1503
620.2	1497
620.4	1490
620.6	1488
620.8	1485
621.0	1474
621.2	1464
621.4	1450
621.6	1437
621.8	1429
622.0	1425
622.2	1418
622.4	1411
622.6	1399
622.8	1388
623.0	1378
623.2	1370
623.4	1360
623.6	1350
623.8	1340
624.0	1333
624.2	1328
624.4	1320
624.6	1311
624.8	1303
625.0	1298
625.2	1289
625.4	1283
625.6	1271
625.8	1263
626.0	1257
626.2	1250
626.4	1242
626.6	1235
626.8	1225
627.0	1219
627.2	1209
627.4	1198
627.6	1194
627.8	1187
628.0	1180
628.2	1172
628.4	1165
628.6	1158
628.8	1150
629.0	1140
629.2	1131
629.4	1121
629.6	1113
629.8	1105
630.0	1099
630.2	1095
630.4	1090
630.6	1085
630.8	1076
631.0	1068
631.2	1063
631.4	1060
631.6	1053
631.8	1047
632.0	1038
632.2	1031
632.4	1027
632.6	1021
632.8	1015
633.0	1008
633.2	1000
633.4	994.4
633.6	990.1
633.8	983.1
634.0	979.7
634.2	971.2
634.4	964.7
634.6	957.9
634.8	951.4
635.0	945.2
635.2	939.3
635.4	930.5
635.6	926.1
635.8	920.8
636.0	914.5
636.2	910.6
636.4	902.6
636.6	894.7
636.8	889.1
637.0	884.4
637.2	877.3
637.4	870.7
637.6	862.4
637.8	855.6
638.0	851.0
638.2	846.6
638.4	840.4
638.6	834.8
638.8	832.0
639.0	827.1
639.2	820.5
639.4	817.4
639.6	812.4
639.8	808.5
640.0	803.7
640.2	799.1
640.4	790.9
640.6	785.9
640.8	777.9
641.0	770.0
641.2	762.7
641.4	761.1
641.6	758.6
641.8	754.3
642.0	747.1
642.2	741.9
642.4	737.8
642.6	736.6
642.8	732.9
643.0	726.1
643.2	718.0
643.4	712.2
643.6	707.6
643.8	704.1
644.0	700.7
644.2	695.1
644.4	690.9
644.6	687.5
644.8	685.4
645.0	678.3
645.2	673.8
645.4	665.7
645.6	661.4
645.8	659.0
646.0	654.1
646.2	649.6
646.4	643.6
646.6	638.1
646.8	636.1
647.0	635.5
647.2	630.2
647.4	628.2
647.6	621.7
647.8	615.8
648.0	611.1
648.2	607.6
648.4	600.6
648.6	597.0
648.8	593.3
649.0	588.9
649.2	584.8
649.4	582.0
649.6	576.6
649.8	573.3
650.0	569.6
650.2	566.2
650.4	562.2
650.6	561.3
650.8	557.2
651.0	553.1
651.2	547.5
651.4	542.3
651.6	536.7
651.8	535.6
652.0	531.1
652.2	530.1
652.4	528.2
652.6	525.8
652.8	520.9
653.0	515.3
653.2	508.8
653.4	505.3
653.6	503.4
653.8	503.9
654.0	501.1
654.2	497.1
654.4	492.4
654.6	487.5
654.8	484.3
655.0	481.5
655.2	479.4
655.4	476.2
655.6	472.3
655.8	469.6
656.0	465.7
656.2	459.8
656.4	456.3
656.6	453.3
656.8	452.1
657.0	451.4
657.2	448.7
657.4	445.1
657.6	441.0
657.8	437.5
658.0	433.8
658.2	430.4
658.4	427.0
658.6	424.4
658.8	420.5
659.0	416.7
659.2	413.6
659.4	412.2
659.6	411.1
659.8	408.5
660.0	404.0
660.2	398.3
660.4	395.3
660.6	394.1
660.8	392.8
661.0	389.9
661.2	386.8
661.4	384.3
661.6	382.6
661.8	381.3
662.0	379.0
662.2	373.3
662.4	369.6
662.6	366.2
662.8	363.2
663.0	361.1
663.2	359.0
663.4	357.2
663.6	355.4
663.8	352.6
664.0	350.1
664.2	348.0
664.4	346.0
664.6	343.5
664.8	340.4
665.0	337.1
665.2	334.6
665.4	332.2
665.6	331.4
665.8	327.3
666.0	325.9
666.2	324.1
666.4	323.1
666.6	319.6
666.8	317.4
667.0	312.8
667.2	309.2
667.4	308.1
667.6	307.8
667.8	307.6
668.0	306.2
668.2	303.6
668.4	298.7
668.6	296.4
668.8	295.1
669.0	294.1
669.2	292.4
669.4	289.8
669.6	286.1
669.8	284.4
670.0	283.1
670.2	281.2
670.4	279.0
670.6	276.1
670.8	273.7
671.0	271.7
671.2	270.9
671.4	270.8
671.6	271.2
671.8	270.0
672.0	267.1
672.2	262.8
672.4	259.6
672.6	258.4
672.8	258.2
673.0	257.7
673.2	253.9
673.4	249.7
673.6	246.9
673.8	245.5
674.0	244.5
674.2	244.0
674.4	242.6
674.6	240.4
674.8	239.4
675.0	237.1
675.2	234.6
675.4	233.5
675.6	232.5
675.8	229.5
676.0	227.5
676.2	223.7
676.4	221.1
676.6	221.0
676.8	220.8
677.0	219.5
677.2	217.9
677.4	214.1
677.6	213.0
677.8	211.2
678.0	210.2
678.2	209.3
678.4	208.7
678.6	207.6
678.8	208.6
679.0	207.0
679.2	204.8
679.4	202.7
679.6	200.5
679.8	199.8
680.0	198.7
680.2	195.8
680.4	192.8
680.6	191.1
680.8	189.3
681.0	189.3
681.2	188.2
681.4	187.0
681.6	185.9
681.8	184.9
682.0	182.0
682.2	179.8
682.4	179.3
682.6	180.2
682.8	180.2
683.0	179.0
683.2	175.9
683.4	173.8
683.6	172.8
683.8	172.2
684.0	170.9
684.2	169.1
684.4	166.9
684.6	165.8
684.8	165.5
685.0	164.0
685.2	162.0
685.4	160.3
685.6	159.0
685.8	158.3
686.0	157.0
686.2	155.4
686.4	154.4
686.6	153.3
686.8	153.2
687.0	154.0
687.2	154.1
687.4	153.6
687.6	151.6
687.8	149.1
688.0	147.5
688.2	146.4
688.4	146.1
688.6	144.7
688.8	143.1
689.0	142.3
689.2	141.6
689.4	139.8
689.6	139.2
689.8	138.2
690.0	138.4
690.2	136.9
690.4	135.9
690.6	133.8
690.8	132.2
691.0	131.1
691.2	131.9
691.4	131.1
691.6	131.4
691.8	130.2
692.0	129.0
692.2	128.3
692.4	127.2
692.6	126.2
692.8	126.4
693.0	125.8
693.2	125.3
693.4	124.0
693.6	122.9
693.8	121.4
694.0	120.7
694.2	119.6
694.4	118.1
694.6	116.8
694.8	116.7
695.0	116.0
695.2	115.5
695.4	115.4
695.6	113.7
695.8	112.3
696.0	111.1
696.2	110.5
696.4	109.7
696.6	110.2
696.8	109.6
697.0	108.6
697.2	107.8
697.4	107.4
697.6	106.6
697.8	105.7
698.0	105.1
698.2	104.4
698.4	103.8
698.6	103.1
698.8	102.2
699.0	100.6
699.2	100.2
699.4	100.1
699.6	99.59
699.8	100.1
700.0	99.47
700.2	98.91
700.4	98.81
700.6	97.54
700.8	96.65
701.0	96.73
701.2	95.78
701.4	95.08
701.6	94.10
701.8	92.54
702.0	91.84
702.2	90.83
702.4	89.82
702.6	89.91
702.8	89.73
703.0	89.95
703.2	90.45
703.4	89.95
703.6	88.31
703.8	88.18
704.0	87.00
704.2	87.08
704.4	87.26
704.6	87.13
704.8	86.29
705.0	85.95
705.2	84.68
705.4	83.79
705.6	83.19
705.8	82.52
706.0	82.32
706.2	81.93
706.4	81.17
706.6	80.15
706.8	78.87
707.0	77.81
707.2	77.36
707.4	77.86
707.6	77.47
707.8	77.35
708.0	77.12
708.2	76.33
708.4	76.08
708.6	76.11
708.8	75.30
709.0	75.05
709.2	74.99
709.4	73.43
709.6	72.35
709.8	71.95
710.0	71.84
710.2	71.32
710.4	70.59
710.6	69.30
710.8	68.25
711.0	68.89
711.2	69.71
711.4	68.91
711.6	68.11
711.8	67.06
712.0	66.73
712.2	66.62
712.4	66.94
712.6	66.12
712.8	65.97
713.0	64.90
713.2	65.20
713.4	64.47
713.6	64.37
713.8	63.87
714.0	63.81
714.2	63.00
714.4	62.18
714.6	61.42
714.8	61.20
715.0	60.90
715.2	60.72
715.4	60.36
715.6	59.12
715.8	59.05
716.0	58.07
716.2	57.72
716.4	57.24
716.6	57.02
716.8	56.66
717.0	56.55
717.2	55.66
717.4	55.41
717.6	55.68
717.8	56.23
718.0	55.86
718.2	55.16
718.4	54.18
718.6	53.27
718.8	52.95
719.0	53.26
719.2	52.86
719.4	52.93
719.6	52.98
719.8	52.86
720.0	52.70
720.2	52.62
720.4	51.31
720.6	50.56
720.8	49.75
721.0	49.31
721.2	49.29
721.4	48.93
721.6	48.67
721.8	48.50
722.0	47.95
722.2	47.27
722.4	47.06
722.6	46.92
722.8	47.23
723.0	47.09
723.2	46.36
723.4	44.90
723.6	44.05
723.8	44.07
724.0	43.67
724.2	43.58
724.4	43.58
724.6	43.26
724.8	43.38
725.0	43.59
725.2	43.25
725.4	42.56
725.6	41.90
725.8	41.23
726.0	40.26
726.2	39.62
726.4	39.28
726.6	39.46
726.8	39.84
727.0	39.91
727.2	38.98
727.4	39.34
727.6	38.77
727.8	38.42
728.0	37.74
728.2	36.97
728.4	36.60
728.6	37.25
728.8	37.72
729.0	37.80
729.2	37.37
729.4	36.58
729.6	35.90
729.8	34.69
730.0	34.59
730.2	34.87
730.4	35.29
730.6	34.97
730.8	34.78
731.0	34.11
731.2	33.75
731.4	33.70
731.6	33.60
731.8	33.46
732.0	33.52
732.2	33.24
732.4	32.56
732.6	31.60
732.8	31.03
733.0	31.37
733.2	31.62
733.4	31.44
733.6	31.22
733.8	30.57
734.0	30.42
734.2	30.30
734.4	29.87
734.6	29.41
734.8	29.48
735.0	30.35
735.2	30.77
735.4	30.65
735.6	29.87
735.8	29.03
736.0	28.41
736.2	28.25
736.4	28.15
736.6	27.91
736.8	27.68
737.0	27.76
737.2	27.67
737.4	26.94
737.6	26.70
737.8	25.90
738.0	25.78
738.2	26.16
738.4	26.21
738.6	26.38
738.8	26.65
739.0	26.21
739.2	25.96
739.4	25.09
739.6	24.05
739.8	24.15
740.0	24.32
740.2	24.77
740.4	25.07
740.6	24.61
740.8	24.22
741.0	24.26
741.2	23.72
741.4	23.47
741.6	22.72
741.8	21.89
742.0	21.79
742.2	22.41
742.4	23.07
742.6	23.19
742.8	22.71
743.0	21.91
743.2	21.45
743.4	21.51
743.6	21.70
743.8	21.62
744.0	21.11
744.2	20.58
744.4	20.53
744.6	20.57
744.8	20.21
745.0	20.50
745.2	20.40
745.4	20.54
745.6	20.93
745.8	20.71
746.0	20.27
746.2	20.39
746.4	20.26
746.6	19.96
746.8	19.31
747.0	18.68
747.2	18.89
747.4	19.25
747.6	19.55
747.8	19.48
748.0	18.66
748.2	18.22
748.4	17.91
748.6	17.81
748.8	17.93
749.0	18.43
749.2	18.49
749.4	18.46
749.6	18.32
749.8	18.25
750.0	17.70
750.2	17.61
750.4	17.25
750.6	16.72
750.8	16.95
751.0	17.11
751.2	16.68
751.4	16.75
751.6	16.55
751.8	16.89
752.0	16.95
752.2	16.63
752.4	15.98
752.6	15.44
752.8	15.05
753.0	15.34
753.2	15.45
753.4	15.60
753.6	15.52
753.8	15.43
754.0	15.37
754.2	15.21
754.4	15.30
754.6	14.79
754.8	14.63
755.0	14.30
755.2	14.35
755.4	14.64
755.6	14.94
755.8	14.62
756.0	14.68
756.2	14.01
756.4	14.05
756.6	14.09
756.8	14.09
757.0	13.97
757.2	13.60
757.4	13.35
757.6	13.61
757.8	13.65
758.0	13.75
758.2	13.60
758.4	13.54
758.6	13.58
758.8	13.61
759.0	13.53
759.2	13.25
759.4	12.69
759.6	12.47
759.8	12.26
760.0	12.02
760.2	12.08
760.4	12.57
760.6	12.72
760.8	12.65
761.0	12.62
761.2	11.94
761.4	11.61
761.6	11.81
761.8	11.93
762.0	11.87
762.2	11.83
762.4	11.50
762.6	11.05
762.8	10.66
763.0	10.79
763.2	11.09
763.4	11.32
763.6	11.72
763.8	11.53
764.0	11.33
764.2	10.97
764.4	10.84
764.6	10.70
764.8	10.61
765.0	10.38
765.2	10.41
765.4	10.36
765.6	10.54
765.8	10.63
766.0	10.45
766.2	10.26
766.4	10.10
766.6	10.23
766.8	10.49
767.0	10.51
767.2	10.33
767.4	10.05
767.6	9.833
767.8	9.596
768.0	9.476
768.2	9.247
768.4	9.284
768.6	9.277
768.8	9.533
769.0	9.640
769.2	9.670
769.4	9.524
769.6	9.516
769.8	9.413
770.0	9.353
770.2	9.255
770.4	9.095
770.6	8.919
770.8	8.741
771.0	8.496
771.2	8.597
771.4	8.825
771.6	8.880
771.8	8.752
772.0	8.606
772.2	8.210
772.4	8.230
772.6	8.623
772.8	8.684
773.0	8.610
773.2	8.357
773.4	7.945
773.6	8.077
773.8	8.240
774.0	8.152
774.2	8.134
774.4	8.136
774.6	7.921
774.8	8.045
775.0	8.139
775.2	8.060
775.4	8.053
775.6	8.215
775.8	7.981
776.0	7.719
776.2	7.717
776.4	7.376
776.6	7.324
776.8	7.478
777.0	7.812
777.2	7.905
777.4	7.947
777.6	7.922
777.8	7.988
778.0	7.872
778.2	7.937
778.4	7.519
778.6	7.399
778.8	7.326
779.0	7.331
779.2	7.160
779.4	7.300
779.6	7.268
779.8	7.401
780.0	7.436
780.2	7.260
780.4	7.251
780.6	7.466
780.8	7.580
781.0	7.489
781.2	7.485
781.4	7.342
781.6	7.510
781.8	7.699
782.0	7.610
782.2	7.180
782.4	6.958
782.6	6.786
782.8	7.014
783.0	7.350
783.2	7.178
783.4	6.872
783.6	6.813
783.8	6.748
784.0	7.213
784.2	7.632
784.4	7.537
784.6	7.330
784.8	7.393
785.0	7.554
785.2	7.830
785.4	7.829
785.6	7.592
785.8	7.295
786.0	7.399
786.2	7.716
786.4	7.852
786.6	7.794
786.8	7.621
787.0	7.639
787.2	7.612
787.4	8.005
787.6	8.002
787.8	8.055
788.0	8.015
788.2	8.103
788.4	7.848
788.6	7.955
788.8	7.756
789.0	7.934
789.2	8.196
789.4	8.266
789.6	8.252
789.8	8.170
790.0	8.227
790.2	8.523
790.4	8.580
790.6	8.763
790.8	8.855
791.0	8.852
791.2	9.153
791.4	9.285
791.6	9.108
791.8	9.130
792.0	8.920
792.2	8.876
792.4	9.193
792.6	9.440
792.8	9.449
793.0	9.404
793.2	9.474
793.4	9.454
793.6	9.595
793.8	9.615
794.0	9.813
794.2	9.968
794.4	10.04
794.6	10.08
794.8	9.843
795.0	9.581
795.2	9.709
795.4	9.770
795.6	9.586
795.8	9.552
796.0	9.441
796.2	9.753
796.4	9.853
796.6	10.22
796.8	10.05
797.0	9.834
797.2	9.761
797.4	9.796
797.6	9.843
797.8	10.11
798.0	10.29
798.2	10.57
798.4	10.64
798.6	10.44
798.8	10.52
799.0	10.31
799.2	10.46
799.4	10.39
799.6	10.17
799.8	10.41
800.0	10.35
800.2	10.48
800.4	10.81
800.6	10.75
800.8	10.69
801.0	10.90
801.2	10.35
801.4	10.30
801.6	10.48
801.8	10.70
802.0	11.00
802.2	10.95
802.4	10.66
802.6	10.64
802.8	10.48
803.0	10.26
803.2	10.20
803.4	10.03
803.6	9.979
803.8	10.43
804.0	10.77
804.2	10.96
804.4	10.96
804.6	10.69
804.8	10.08
805.0	9.703
805.2	9.800
805.4	9.821
805.6	9.760
805.8	9.790
806.0	9.552
806.2	9.541
806.4	9.842
806.6	10.00
806.8	10.02
807.0	9.979
807.2	9.598
807.4	9.450
807.6	9.279
807.8	9.252
808.0	9.488
808.2	9.923
808.4	10.05
808.6	9.900
808.8	9.497
809.0	8.899
809.2	8.574
809.4	8.786
809.6	8.941
809.8	9.207
810.0	9.194
810.2	8.885
810.4	8.618
810.6	8.630
810.8	8.510
811.0	8.484
811.2	8.286
811.4	8.289
811.6	8.324
811.8	8.100
812.0	7.840
812.2	7.652
812.4	7.701
812.6	7.893
812.8	7.914
813.0	7.693
813.2	7.881
813.4	7.824
813.6	7.685
813.8	7.444
814.0	7.174
814.2	6.892
814.4	6.952
814.6	6.749
814.8	6.659
815.0	6.851
815.2	7.046
815.4	7.093
815.6	7.059
815.8	6.830
816.0	6.595
816.2	6.470
816.4	6.235
816.6	6.204
816.8	6.441
817.0	6.553
817.2	6.680
817.4	6.449
817.6	6.123
817.8	6.037
818.0	6.059
818.2	5.812
818.4	5.746
818.6	5.763
818.8	5.829
819.0	5.814
819.2	5.788
819.4	5.667
819.6	5.777
819.8	5.798
820.0	5.508
820.2	5.345
820.4	5.197
820.6	5.127
820.8	5.175
821.0	5.081
821.2	4.910
821.4	5.087
821.6	5.140
821.8	5.019
822.0	5.024
822.2	5.121
822.4	5.215
822.6	5.097
822.8	4.751
823.0	4.497
823.2	4.615
823.4	4.862
823.6	5.097
823.8	5.173
824.0	4.907
824.2	4.920
824.4	4.880
824.6	4.782
824.8	4.551
825.0	4.404
825.2	4.211
825.4	4.120
825.6	4.151
825.8	4.133
826.0	3.968
826.2	3.841
826.4	3.913
826.6	3.961
826.8	4.064
827.0	4.014
827.2	3.775
827.4	3.561
827.6	3.543
827.8	3.547
828.0	3.651
828.2	3.799
828.4	3.963
828.6	3.882
828.8	3.958
829.0	3.776
829.2	3.701
829.4	3.672
829.6	3.683
829.8	3.622
830.0	3.626
830.2	3.448
830.4	3.275
830.6	3.342
830.8	3.557
831.0	3.691
831.2	3.522
831.4	3.282
831.6	2.962
831.8	2.971
832.0	3.234
832.2	3.433
832.4	3.365
832.6	3.281
832.8	3.144
833.0	3.121
833.2	3.008
833.4	3.105
833.6	3.130
833.8	3.088
834.0	3.220
834.2	3.280
834.4	3.101
834.6	3.018
834.8	3.061
835.0	3.029
835.2	3.182
835.4	3.151
835.6	2.958
835.8	2.893
836.0	2.937
836.2	3.005
836.4	3.220
836.6	3.199
836.8	3.034
837.0	2.889
837.2	2.707
837.4	2.782
837.6	3.000
837.8	3.045
838.0	3.097
838.2	2.882
838.4	2.777
838.6	2.825
838.8	2.698
839.0	2.778
839.2	2.996
839.4	3.074
839.6	3.128
839.8	3.152
840.0	2.951
840.2	2.876
840.4	2.745
840.6	2.567
840.8	2.510
841.0	2.592
841.2	2.642
841.4	2.674
841.6	2.785
841.8	2.729
842.0	2.659
842.2	2.634
842.4	2.484
842.6	2.479
842.8	2.572
843.0	2.542
843.2	2.384
843.4	2.497
843.6	2.451
843.8	2.578
844.0	2.541
844.2	2.476
844.4	2.257
844.6	2.291
844.8	2.418
845.0	2.526
845.2	2.433
845.4	2.448
845.6	2.395
845.8	2.404
846.0	2.543
846.2	2.514
846.4	2.481
846.6	2.579
846.8	2.522
847.0	2.451
847.2	2.512
847.4	2.455
847.6	2.476
847.8	2.504
848.0	2.301
848.2	2.283
848.4	2.389
848.6	2.289
848.8	2.199
849.0	2.179
849.2	2.138
849.4	2.176
849.6	2.263
849.8	2.361
850.0	2.451

