Sample:	'20211010A(EM)
File name:	B-CDs 9 900 1.FDS
Run date:	'15:34:15, 06/08/2023
Operator:	Administrator
Comment:	'

Instrument
Model:	F-4700 FL Spectrophotometer
Serial number:	2019-001
ROM Version:	5J24010 00

Instrument parameters
Measurement type:	Wavelength scan
Scan mode:	Emission
Data mode:	Fluorescence
EX WL:	350.0 nm
EM  Start WL:	370.0 nm
EM  End WL:	680.0 nm
Scan speed:	1200 nm/min
Delay:	0.0 s
EX Slit:	10.0 nm
EM Slit:	10.0 nm
PMT Voltage:	380 V
Response:	0.002 s
Corrected spectra:	Off
Shutter control:	On

Processing performed
Savitsky-Golay smoothed
Smoothing order:	3
Number of points:	7
Number of times:	1

Peak integration
Integration method:	Rectangular
Sensitivity:	1
Threshold:	1.000

Peaks
No.	Start(nm)	Apex(nm)	End(nm)	Height(Data)	Valley(nm)	Valley(Data)
1	370.0	453.6	680.0	2239	680.0	5.889

Data points
nm	Data
370.0	3.037
370.2	3.322
370.4	3.400
370.6	3.365
370.8	3.407
371.0	3.335
371.2	3.354
371.4	3.449
371.6	3.419
371.8	3.505
372.0	3.680
372.2	3.718
372.4	3.760
372.6	3.726
372.8	3.693
373.0	3.744
373.2	3.884
373.4	3.955
373.6	4.148
373.8	4.257
374.0	4.446
374.2	4.577
374.4	4.716
374.6	4.733
374.8	4.830
375.0	4.858
375.2	4.955
375.4	5.087
375.6	5.203
375.8	5.226
376.0	5.251
376.2	5.407
376.4	5.662
376.6	5.895
376.8	6.035
377.0	6.007
377.2	6.076
377.4	6.241
377.6	6.413
377.8	6.615
378.0	6.764
378.2	6.905
378.4	7.153
378.6	7.377
378.8	7.597
379.0	7.906
379.2	8.054
379.4	8.164
379.6	8.394
379.8	8.680
380.0	8.985
380.2	9.252
380.4	9.404
380.6	9.621
380.8	9.894
381.0	10.23
381.2	10.65
381.4	10.95
381.6	11.31
381.8	11.73
382.0	11.97
382.2	12.19
382.4	12.39
382.6	12.69
382.8	13.26
383.0	13.80
383.2	14.32
383.4	14.89
383.6	15.36
383.8	16.08
384.0	16.60
384.2	16.94
384.4	17.37
384.6	17.90
384.8	18.72
385.0	19.68
385.2	20.25
385.4	20.98
385.6	21.45
385.8	21.96
386.0	22.78
386.2	23.45
386.4	24.22
386.6	24.91
386.8	25.77
387.0	26.83
387.2	28.00
387.4	28.98
387.6	29.85
387.8	30.65
388.0	32.00
388.2	33.07
388.4	34.00
388.6	35.03
388.8	35.84
389.0	37.06
389.2	38.72
389.4	40.04
389.6	41.29
389.8	42.76
390.0	44.30
390.2	46.12
390.4	47.76
390.6	49.34
390.8	50.82
391.0	52.20
391.2	54.15
391.4	55.73
391.6	57.38
391.8	59.55
392.0	61.36
392.2	63.17
392.4	65.69
392.6	67.49
392.8	70.00
393.0	72.41
393.2	74.77
393.4	76.93
393.6	79.51
393.8	81.58
394.0	84.46
394.2	87.00
394.4	89.56
394.6	92.08
394.8	94.78
395.0	97.35
395.2	100.9
395.4	104.7
395.6	108.3
395.8	112.0
396.0	115.7
396.2	118.5
396.4	121.2
396.6	125.1
396.8	128.4
397.0	132.3
397.2	136.5
397.4	140.6
397.6	144.9
397.8	149.4
398.0	152.6
398.2	156.9
398.4	161.6
398.6	166.9
398.8	172.3
399.0	177.2
399.2	181.4
399.4	186.7
399.6	192.4
399.8	197.8
400.0	203.1
400.2	209.3
400.4	214.9
400.6	221.7
400.8	228.3
401.0	234.5
401.2	240.8
401.4	247.1
401.6	252.4
401.8	258.6
402.0	264.9
402.2	272.2
402.4	280.2
402.6	286.9
402.8	293.6
403.0	299.5
403.2	305.4
403.4	312.7
403.6	320.7
403.8	327.6
404.0	335.8
404.2	344.0
404.4	351.8
404.6	359.7
404.8	367.7
405.0	375.3
405.2	384.6
405.4	394.3
405.6	402.8
405.8	411.6
406.0	420.0
406.2	428.9
406.4	439.1
406.6	449.7
406.8	459.2
407.0	469.4
407.2	477.6
407.4	485.0
407.6	492.6
407.8	502.2
408.0	511.4
408.2	522.0
408.4	532.7
408.6	543.3
408.8	554.0
409.0	564.8
409.2	575.0
409.4	585.4
409.6	595.7
409.8	607.4
410.0	619.8
410.2	630.2
410.4	640.9
410.6	651.8
410.8	661.8
411.0	673.5
411.2	685.2
411.4	696.5
411.6	707.6
411.8	720.5
412.0	732.5
412.2	744.3
412.4	754.9
412.6	765.5
412.8	775.7
413.0	787.9
413.2	799.8
413.4	811.6
413.6	823.2
413.8	833.9
414.0	846.4
414.2	860.2
414.4	871.9
414.6	884.0
414.8	896.0
415.0	906.5
415.2	918.8
415.4	932.0
415.6	943.6
415.8	957.4
416.0	970.6
416.2	982.2
416.4	994.4
416.6	1006
416.8	1017
417.0	1031
417.2	1044
417.4	1056
417.6	1068
417.8	1079
418.0	1088
418.2	1099
418.4	1111
418.6	1124
418.8	1139
419.0	1153
419.2	1166
419.4	1179
419.6	1189
419.8	1202
420.0	1214
420.2	1227
420.4	1241
420.6	1252
420.8	1262
421.0	1273
421.2	1284
421.4	1297
421.6	1310
421.8	1322
422.0	1334
422.2	1346
422.4	1356
422.6	1368
422.8	1376
423.0	1387
423.2	1398
423.4	1411
423.6	1423
423.8	1435
424.0	1445
424.2	1455
424.4	1465
424.6	1478
424.8	1488
425.0	1498
425.2	1509
425.4	1521
425.6	1532
425.8	1547
426.0	1556
426.2	1566
426.4	1575
426.6	1585
426.8	1596
427.0	1607
427.2	1617
427.4	1627
427.6	1637
427.8	1646
428.0	1659
428.2	1668
428.4	1678
428.6	1688
428.8	1698
429.0	1707
429.2	1716
429.4	1724
429.6	1731
429.8	1741
430.0	1750
430.2	1763
430.4	1773
430.6	1782
430.8	1792
431.0	1801
431.2	1809
431.4	1816
431.6	1823
431.8	1831
432.0	1840
432.2	1851
432.4	1861
432.6	1867
432.8	1873
433.0	1879
433.2	1886
433.4	1896
433.6	1905
433.8	1912
434.0	1919
434.2	1926
434.4	1935
434.6	1944
434.8	1953
435.0	1959
435.2	1965
435.4	1970
435.6	1977
435.8	1986
436.0	1993
436.2	1997
436.4	2001
436.6	2005
436.8	2012
437.0	2019
437.2	2025
437.4	2031
437.6	2038
437.8	2044
438.0	2049
438.2	2050
438.4	2054
438.6	2059
438.8	2066
439.0	2074
439.2	2080
439.4	2084
439.6	2088
439.8	2094
440.0	2100
440.2	2105
440.4	2112
440.6	2116
440.8	2118
441.0	2123
441.2	2128
441.4	2133
441.6	2138
441.8	2141
442.0	2142
442.2	2145
442.4	2151
442.6	2155
442.8	2158
443.0	2161
443.2	2160
443.4	2162
443.6	2166
443.8	2173
444.0	2177
444.2	2181
444.4	2185
444.6	2190
444.8	2194
445.0	2196
445.2	2194
445.4	2198
445.6	2202
445.8	2205
446.0	2206
446.2	2205
446.4	2203
446.6	2206
446.8	2211
447.0	2213
447.2	2215
447.4	2215
447.6	2216
447.8	2218
448.0	2221
448.2	2221
448.4	2223
448.6	2224
448.8	2226
449.0	2228
449.2	2231
449.4	2229
449.6	2230
449.8	2230
450.0	2228
450.2	2228
450.4	2228
450.6	2227
450.8	2231
451.0	2232
451.2	2234
451.4	2237
451.6	2237
451.8	2237
452.0	2236
452.2	2234
452.4	2234
452.6	2235
452.8	2238
453.0	2238
453.2	2236
453.4	2237
453.6	2239
453.8	2238
454.0	2238
454.2	2236
454.4	2235
454.6	2234
454.8	2234
455.0	2233
455.2	2232
455.4	2232
455.6	2234
455.8	2234
456.0	2235
456.2	2233
456.4	2229
456.6	2228
456.8	2230
457.0	2232
457.2	2231
457.4	2227
457.6	2224
457.8	2223
458.0	2223
458.2	2222
458.4	2218
458.6	2217
458.8	2215
459.0	2215
459.2	2214
459.4	2212
459.6	2211
459.8	2211
460.0	2207
460.2	2204
460.4	2202
460.6	2204
460.8	2204
461.0	2203
461.2	2199
461.4	2193
461.6	2187
461.8	2186
462.0	2179
462.2	2176
462.4	2175
462.6	2177
462.8	2177
463.0	2177
463.2	2173
463.4	2168
463.6	2164
463.8	2165
464.0	2165
464.2	2163
464.4	2161
464.6	2157
464.8	2151
465.0	2151
465.2	2149
465.4	2147
465.6	2143
465.8	2137
466.0	2131
466.2	2129
466.4	2124
466.6	2122
466.8	2118
467.0	2115
467.2	2112
467.4	2113
467.6	2110
467.8	2105
468.0	2099
468.2	2092
468.4	2083
468.6	2081
468.8	2077
469.0	2075
469.2	2074
469.4	2071
469.6	2067
469.8	2064
470.0	2059
470.2	2054
470.4	2050
470.6	2043
470.8	2039
471.0	2038
471.2	2035
471.4	2032
471.6	2027
471.8	2020
472.0	2016
472.2	2017
472.4	2014
472.6	2010
472.8	2002
473.0	1995
473.2	1991
473.4	1987
473.6	1983
473.8	1978
474.0	1973
474.2	1970
474.4	1968
474.6	1962
474.8	1955
475.0	1948
475.2	1942
475.4	1939
475.6	1937
475.8	1933
476.0	1929
476.2	1923
476.4	1918
476.6	1914
476.8	1909
477.0	1905
477.2	1900
477.4	1896
477.6	1893
477.8	1888
478.0	1883
478.2	1878
478.4	1873
478.6	1869
478.8	1866
479.0	1860
479.2	1856
479.4	1853
479.6	1849
479.8	1845
480.0	1841
480.2	1835
480.4	1829
480.6	1822
480.8	1816
481.0	1812
481.2	1807
481.4	1803
481.6	1800
481.8	1795
482.0	1789
482.2	1785
482.4	1780
482.6	1776
482.8	1772
483.0	1763
483.2	1757
483.4	1750
483.6	1746
483.8	1742
484.0	1740
484.2	1733
484.4	1732
484.6	1728
484.8	1723
485.0	1718
485.2	1712
485.4	1707
485.6	1702
485.8	1697
486.0	1690
486.2	1685
486.4	1683
486.6	1682
486.8	1678
487.0	1673
487.2	1665
487.4	1657
487.6	1653
487.8	1647
488.0	1643
488.2	1640
488.4	1633
488.6	1626
488.8	1621
489.0	1614
489.2	1609
489.4	1606
489.6	1601
489.8	1596
490.0	1592
490.2	1588
490.4	1585
490.6	1580
490.8	1574
491.0	1567
491.2	1562
491.4	1558
491.6	1553
491.8	1546
492.0	1540
492.2	1534
492.4	1528
492.6	1523
492.8	1519
493.0	1514
493.2	1509
493.4	1504
493.6	1497
493.8	1491
494.0	1486
494.2	1480
494.4	1476
494.6	1472
494.8	1466
495.0	1459
495.2	1453
495.4	1446
495.6	1441
495.8	1437
496.0	1432
496.2	1427
496.4	1421
496.6	1416
496.8	1411
497.0	1405
497.2	1399
497.4	1392
497.6	1385
497.8	1378
498.0	1374
498.2	1369
498.4	1363
498.6	1356
498.8	1349
499.0	1344
499.2	1341
499.4	1338
499.6	1333
499.8	1326
500.0	1318
500.2	1316
500.4	1314
500.6	1308
500.8	1301
501.0	1292
501.2	1284
501.4	1279
501.6	1273
501.8	1267
502.0	1260
502.2	1254
502.4	1249
502.6	1246
502.8	1242
503.0	1239
503.2	1234
503.4	1229
503.6	1223
503.8	1219
504.0	1213
504.2	1207
504.4	1200
504.6	1191
504.8	1185
505.0	1181
505.2	1176
505.4	1173
505.6	1167
505.8	1157
506.0	1152
506.2	1146
506.4	1143
506.6	1141
506.8	1135
507.0	1129
507.2	1125
507.4	1119
507.6	1116
507.8	1112
508.0	1106
508.2	1102
508.4	1097
508.6	1090
508.8	1082
509.0	1078
509.2	1073
509.4	1069
509.6	1062
509.8	1057
510.0	1050
510.2	1045
510.4	1040
510.6	1035
510.8	1029
511.0	1024
511.2	1020
511.4	1015
511.6	1011
511.8	1006
512.0	1000
512.2	993.5
512.4	988.4
512.6	983.6
512.8	979.5
513.0	977.2
513.2	972.8
513.4	966.9
513.6	962.7
513.8	957.2
514.0	952.2
514.2	948.0
514.4	942.3
514.6	936.7
514.8	930.2
515.0	925.8
515.2	921.2
515.4	916.2
515.6	911.4
515.8	907.8
516.0	902.7
516.2	898.5
516.4	895.0
516.6	891.4
516.8	889.2
517.0	885.5
517.2	880.5
517.4	874.7
517.6	869.3
517.8	863.0
518.0	857.8
518.2	852.0
518.4	848.4
518.6	845.9
518.8	842.7
519.0	839.1
519.2	833.8
519.4	829.0
519.6	825.2
519.8	821.4
520.0	817.0
520.2	813.4
520.4	809.5
520.6	803.4
520.8	799.5
521.0	794.9
521.2	790.9
521.4	787.1
521.6	784.7
521.8	778.9
522.0	774.5
522.2	770.3
522.4	768.2
522.6	764.5
522.8	760.6
523.0	755.2
523.2	749.4
523.4	744.8
523.6	742.6
523.8	738.5
524.0	734.5
524.2	730.9
524.4	727.0
524.6	723.4
524.8	721.2
525.0	717.9
525.2	714.6
525.4	709.3
525.6	704.6
525.8	700.8
526.0	697.1
526.2	693.1
526.4	688.8
526.6	684.0
526.8	681.1
527.0	678.2
527.2	674.4
527.4	669.8
527.6	666.2
527.8	663.6
528.0	660.6
528.2	658.6
528.4	656.2
528.6	652.2
528.8	647.6
529.0	644.2
529.2	639.2
529.4	635.3
529.6	631.5
529.8	628.3
530.0	624.5
530.2	622.1
530.4	618.9
530.6	615.6
530.8	612.4
531.0	610.2
531.2	606.6
531.4	601.6
531.6	598.2
531.8	594.8
532.0	592.4
532.2	590.4
532.4	587.1
532.6	583.4
532.8	580.5
533.0	576.3
533.2	571.8
533.4	568.0
533.6	564.4
533.8	562.6
534.0	560.8
534.2	558.4
534.4	555.3
534.6	551.7
534.8	548.2
535.0	545.6
535.2	542.0
535.4	537.8
535.6	534.4
535.8	531.6
536.0	529.1
536.2	527.1
536.4	524.1
536.6	519.8
536.8	516.3
537.0	514.1
537.2	511.6
537.4	509.4
537.6	506.6
537.8	502.4
538.0	497.8
538.2	495.7
538.4	493.9
538.6	492.3
538.8	490.2
539.0	487.1
539.2	483.6
539.4	480.4
539.6	476.8
539.8	474.5
540.0	471.5
540.2	470.0
540.4	468.2
540.6	465.3
540.8	463.5
541.0	460.2
541.2	457.0
541.4	455.2
541.6	451.7
541.8	448.7
542.0	446.6
542.2	442.8
542.4	440.8
542.6	438.4
542.8	435.5
543.0	433.8
543.2	431.2
543.4	429.4
543.6	427.1
543.8	424.8
544.0	422.2
544.2	419.4
544.4	415.7
544.6	413.6
544.8	411.4
545.0	410.2
545.2	408.5
545.4	405.6
545.6	402.3
545.8	399.7
546.0	397.3
546.2	395.3
546.4	393.4
546.6	391.5
546.8	388.9
547.0	385.2
547.2	381.8
547.4	380.0
547.6	378.2
547.8	376.8
548.0	374.6
548.2	371.8
548.4	369.4
548.6	368.2
548.8	366.9
549.0	363.8
549.2	359.8
549.4	357.5
549.6	355.5
549.8	353.9
550.0	352.9
550.2	350.3
550.4	346.6
550.6	345.7
550.8	344.2
551.0	342.7
551.2	340.9
551.4	338.8
551.6	336.7
551.8	334.7
552.0	333.2
552.2	331.1
552.4	328.3
552.6	326.0
552.8	324.3
553.0	322.5
553.2	322.0
553.4	320.1
553.6	318.3
553.8	315.1
554.0	312.8
554.2	310.8
554.4	308.8
554.6	307.6
554.8	306.0
555.0	304.1
555.2	302.4
555.4	299.6
555.6	297.0
555.8	296.1
556.0	294.1
556.2	293.0
556.4	291.9
556.6	290.0
556.8	288.2
557.0	286.3
557.2	284.1
557.4	282.1
557.6	280.4
557.8	278.8
558.0	277.2
558.2	274.7
558.4	272.6
558.6	271.5
558.8	269.7
559.0	268.3
559.2	266.7
559.4	264.2
559.6	262.6
559.8	261.7
560.0	260.2
560.2	258.1
560.4	256.6
560.6	254.8
560.8	253.5
561.0	251.8
561.2	250.1
561.4	247.7
561.6	246.5
561.8	244.9
562.0	244.1
562.2	243.0
562.4	241.4
562.6	240.2
562.8	239.1
563.0	237.5
563.2	236.6
563.4	234.8
563.6	232.5
563.8	230.9
564.0	229.2
564.2	228.1
564.4	226.8
564.6	225.8
564.8	225.0
565.0	224.2
565.2	223.1
565.4	221.5
565.6	219.0
565.8	217.1
566.0	215.5
566.2	214.5
566.4	213.2
566.6	211.7
566.8	210.5
567.0	208.9
567.2	207.7
567.4	207.3
567.6	206.0
567.8	204.8
568.0	203.9
568.2	201.7
568.4	200.1
568.6	199.4
568.8	198.7
569.0	197.2
569.2	195.9
569.4	194.0
569.6	192.7
569.8	191.7
570.0	190.9
570.2	189.7
570.4	188.7
570.6	187.5
570.8	186.5
571.0	185.2
571.2	184.4
571.4	184.0
571.6	182.5
571.8	181.4
572.0	180.3
572.2	178.2
572.4	176.9
572.6	176.2
572.8	174.8
573.0	174.4
573.2	173.9
573.4	172.0
573.6	170.8
573.8	170.0
574.0	168.9
574.2	168.6
574.4	167.6
574.6	165.5
574.8	164.0
575.0	163.0
575.2	162.3
575.4	162.0
575.6	161.0
575.8	159.5
576.0	158.3
576.2	157.5
576.4	156.5
576.6	155.4
576.8	154.5
577.0	153.4
577.2	152.8
577.4	152.2
577.6	151.4
577.8	150.6
578.0	149.5
578.2	148.9
578.4	148.5
578.6	147.5
578.8	146.1
579.0	144.6
579.2	143.7
579.4	143.6
579.6	143.3
579.8	142.3
580.0	141.0
580.2	139.4
580.4	138.5
580.6	137.1
580.8	135.5
581.0	134.4
581.2	134.0
581.4	134.0
581.6	133.9
581.8	133.3
582.0	132.6
582.2	132.0
582.4	131.2
582.6	130.0
582.8	128.6
583.0	127.4
583.2	126.7
583.4	126.4
583.6	126.3
583.8	125.7
584.0	124.7
584.2	123.1
584.4	122.1
584.6	121.1
584.8	120.5
585.0	119.6
585.2	119.1
585.4	118.6
585.6	118.0
585.8	116.8
586.0	116.1
586.2	114.8
586.4	115.3
586.6	115.0
586.8	114.3
587.0	113.0
587.2	112.4
587.4	110.9
587.6	110.8
587.8	109.9
588.0	109.4
588.2	108.6
588.4	108.2
588.6	107.4
588.8	106.5
589.0	106.3
589.2	106.1
589.4	105.4
589.6	104.5
589.8	103.6
590.0	102.9
590.2	103.0
590.4	102.3
590.6	101.3
590.8	100.0
591.0	98.82
591.2	98.74
591.4	98.71
591.6	98.18
591.8	97.71
592.0	96.37
592.2	95.08
592.4	94.52
592.6	94.07
592.8	94.06
593.0	93.81
593.2	93.03
593.4	92.48
593.6	92.00
593.8	91.46
594.0	91.20
594.2	90.47
594.4	89.91
594.6	89.03
594.8	88.35
595.0	87.78
595.2	87.97
595.4	87.34
595.6	86.51
595.8	85.56
596.0	84.66
596.2	84.20
596.4	84.21
596.6	83.86
596.8	83.88
597.0	83.82
597.2	82.86
597.4	82.46
597.6	81.47
597.8	80.64
598.0	79.95
598.2	79.73
598.4	79.22
598.6	79.21
598.8	78.76
599.0	78.27
599.2	77.35
599.4	77.10
599.6	76.44
599.8	75.98
600.0	75.92
600.2	75.46
600.4	74.74
600.6	74.16
600.8	73.24
601.0	72.59
601.2	72.56
601.4	72.18
601.6	71.61
601.8	71.37
602.0	70.95
602.2	70.30
602.4	70.09
602.6	69.63
602.8	69.25
603.0	69.28
603.2	68.81
603.4	68.04
603.6	67.40
603.8	66.77
604.0	66.18
604.2	66.08
604.4	65.53
604.6	65.34
604.8	64.90
605.0	64.50
605.2	63.77
605.4	63.51
605.6	63.37
605.8	63.26
606.0	62.62
606.2	62.02
606.4	61.47
606.6	61.10
606.8	60.89
607.0	60.32
607.2	59.73
607.4	59.35
607.6	59.48
607.8	59.47
608.0	59.16
608.2	58.49
608.4	57.82
608.6	57.09
608.8	56.66
609.0	56.37
609.2	55.76
609.4	55.28
609.6	55.26
609.8	55.27
610.0	55.09
610.2	54.93
610.4	54.26
610.6	53.91
610.8	53.44
611.0	52.82
611.2	52.48
611.4	52.37
611.6	52.19
611.8	51.96
612.0	51.38
612.2	50.82
612.4	50.17
612.6	49.95
612.8	49.87
613.0	49.69
613.2	49.61
613.4	49.62
613.6	49.07
613.8	48.70
614.0	48.43
614.2	47.93
614.4	47.67
614.6	47.33
614.8	46.87
615.0	46.39
615.2	46.04
615.4	45.72
615.6	45.58
615.8	45.26
616.0	45.16
616.2	45.06
616.4	44.99
616.6	44.76
616.8	44.33
617.0	43.81
617.2	43.45
617.4	42.93
617.6	43.01
617.8	42.77
618.0	42.60
618.2	42.27
618.4	41.75
618.6	41.06
618.8	40.99
619.0	40.64
619.2	40.23
619.4	40.31
619.6	40.19
619.8	39.73
620.0	39.36
620.2	38.97
620.4	38.44
620.6	38.73
620.8	38.79
621.0	38.55
621.2	38.30
621.4	37.96
621.6	37.18
621.8	36.81
622.0	36.79
622.2	36.66
622.4	36.78
622.6	36.68
622.8	36.27
623.0	35.86
623.2	35.76
623.4	35.36
623.6	35.15
623.8	34.93
624.0	35.12
624.2	34.92
624.4	34.87
624.6	34.55
624.8	33.84
625.0	33.20
625.2	33.22
625.4	33.01
625.6	32.86
625.8	32.88
626.0	32.63
626.2	32.23
626.4	32.06
626.6	31.78
626.8	31.63
627.0	31.42
627.2	31.37
627.4	30.99
627.6	30.63
627.8	30.44
628.0	30.27
628.2	29.90
628.4	29.87
628.6	29.48
628.8	29.14
629.0	28.76
629.2	28.62
629.4	28.49
629.6	28.61
629.8	28.63
630.0	28.57
630.2	28.31
630.4	28.22
630.6	27.78
630.8	27.65
631.0	27.60
631.2	27.53
631.4	27.50
631.6	27.27
631.8	26.88
632.0	26.38
632.2	26.00
632.4	25.80
632.6	25.84
632.8	25.75
633.0	25.44
633.2	25.07
633.4	24.86
633.6	24.82
633.8	24.91
634.0	24.89
634.2	24.53
634.4	24.58
634.6	24.27
634.8	24.14
635.0	24.09
635.2	24.03
635.4	23.79
635.6	23.68
635.8	23.36
636.0	23.28
636.2	23.04
636.4	22.89
636.6	22.62
636.8	22.28
637.0	22.20
637.2	22.26
637.4	22.30
637.6	22.33
637.8	22.32
638.0	21.97
638.2	21.56
638.4	21.16
638.6	21.07
638.8	21.24
639.0	21.45
639.2	21.33
639.4	21.10
639.6	20.69
639.8	20.47
640.0	20.43
640.2	20.09
640.4	19.80
640.6	19.76
640.8	19.69
641.0	19.75
641.2	19.64
641.4	19.32
641.6	19.15
641.8	18.87
642.0	18.73
642.2	18.82
642.4	18.75
642.6	18.54
642.8	18.33
643.0	17.94
643.2	17.90
643.4	18.03
643.6	18.18
643.8	18.02
644.0	17.86
644.2	17.69
644.4	17.44
644.6	17.43
644.8	17.45
645.0	17.45
645.2	17.45
645.4	17.16
645.6	16.83
645.8	16.78
646.0	16.75
646.2	16.75
646.4	16.71
646.6	16.53
646.8	16.41
647.0	16.30
647.2	16.22
647.4	16.02
647.6	15.90
647.8	15.81
648.0	15.51
648.2	15.25
648.4	15.12
648.6	15.02
648.8	15.04
649.0	15.17
649.2	15.16
649.4	15.16
649.6	14.94
649.8	14.61
650.0	14.53
650.2	14.72
650.4	14.73
650.6	14.59
650.8	14.24
651.0	13.82
651.2	13.59
651.4	13.81
651.6	13.78
651.8	13.89
652.0	13.78
652.2	13.71
652.4	13.54
652.6	13.57
652.8	13.43
653.0	13.43
653.2	13.21
653.4	13.06
653.6	12.85
653.8	12.74
654.0	12.67
654.2	12.64
654.4	12.59
654.6	12.42
654.8	12.29
655.0	12.21
655.2	12.20
655.4	12.15
655.6	11.98
655.8	11.92
656.0	12.06
656.2	12.10
656.4	12.29
656.6	12.11
656.8	11.63
657.0	11.34
657.2	11.11
657.4	11.05
657.6	11.26
657.8	11.31
658.0	11.09
658.2	10.89
658.4	10.89
658.6	10.94
658.8	11.05
659.0	11.05
659.2	10.82
659.4	10.67
659.6	10.66
659.8	10.57
660.0	10.55
660.2	10.51
660.4	10.56
660.6	10.47
660.8	10.34
661.0	10.17
661.2	10.17
661.4	10.03
661.6	10.04
661.8	9.735
662.0	9.689
662.2	9.726
662.4	9.835
662.6	9.753
662.8	9.668
663.0	9.612
663.2	9.532
663.4	9.470
663.6	9.261
663.8	9.138
664.0	8.804
664.2	8.764
664.4	8.658
664.6	8.751
664.8	8.801
665.0	8.909
665.2	8.905
665.4	8.804
665.6	8.754
665.8	8.820
666.0	8.812
666.2	8.728
666.4	8.761
666.6	8.629
666.8	8.451
667.0	8.331
667.2	8.377
667.4	8.288
667.6	8.371
667.8	8.408
668.0	8.306
668.2	8.162
668.4	8.177
668.6	7.989
668.8	7.943
669.0	7.869
669.2	7.899
669.4	7.863
669.6	7.996
669.8	7.860
670.0	7.802
670.2	7.511
670.4	7.375
670.6	7.313
670.8	7.305
671.0	7.151
671.2	7.247
671.4	7.123
671.6	7.134
671.8	7.086
672.0	6.982
672.2	6.860
672.4	6.955
672.6	6.997
672.8	7.031
673.0	6.955
673.2	6.905
673.4	6.924
673.6	6.938
673.8	6.923
674.0	6.822
674.2	6.821
674.4	6.747
674.6	6.655
674.8	6.551
675.0	6.461
675.2	6.364
675.4	6.335
675.6	6.305
675.8	6.291
676.0	6.366
676.2	6.400
676.4	6.449
676.6	6.376
676.8	6.362
677.0	6.353
677.2	6.168
677.4	6.011
677.6	5.954
677.8	6.003
678.0	6.035
678.2	5.994
678.4	5.827
678.6	5.747
678.8	5.718
679.0	5.771
679.2	5.688
679.4	5.606
679.6	5.576
679.8	5.654
680.0	5.889

