Sample:	'20211010A(EM)
File name:	g-cds 1;15 630v.FDS
Run date:	'15:08:48, 03/22/2023
Operator:	Administrator
Comment:	'

Instrument
Model:	F-4700 FL Spectrophotometer
Serial number:	2019-001
ROM Version:	5J24010 00

Instrument parameters
Measurement type:	Wavelength scan
Scan mode:	Emission
Data mode:	Fluorescence
EX WL:	350.0 nm
EM  Start WL:	370.0 nm
EM  End WL:	800.0 nm
Scan speed:	1200 nm/min
Delay:	0.0 s
EX Slit:	10.0 nm
EM Slit:	10.0 nm
PMT Voltage:	630 V
Response:	0.002 s
Corrected spectra:	Off
Shutter control:	On

Processing performed
Savitsky-Golay smoothed
Smoothing order:	3
Number of points:	7
Number of times:	1

Peak integration
Integration method:	Rectangular
Sensitivity:	1
Threshold:	1.000

Peaks
No.	Start(nm)	Apex(nm)	End(nm)	Height(Data)	Valley(nm)	Valley(Data)
1	370.0	377.4	378.2	6.952	378.2	5.627
2	378.2	379.0	380.8	7.939	380.8	5.904
3	380.8	383.8	384.6	8.837	384.6	5.836
4	384.6	386.6	387.2	8.210	387.2	6.342
5	387.2	388.0	390.0	8.490	390.0	7.154
6	390.0	391.6	392.2	10.07	392.2	7.550
7	392.2	394.6	396.6	10.49	396.6	9.160
8	396.6	398.4	399.2	11.93	399.2	10.58
9	399.2	400.0	400.6	13.26	400.6	11.99
10	400.6	403.8	404.8	17.48	404.8	15.98
11	404.8	486.4	489.2	8620	489.2	8484
12	489.2	490.2	677.6	8538	677.6	89.10
13	677.6	678.4	681.2	92.56	681.2	78.81
14	681.2	682.2	685.0	81.99	685.0	74.84
15	685.0	686.4	692.2	79.64	692.2	65.22
16	692.2	692.8	693.4	70.16	693.4	63.51
17	693.4	694.4	695.6	67.72	695.6	61.00
18	695.6	696.2	699.4	63.89	699.4	54.52
19	699.4	700.0	702.2	57.98	702.2	51.67
20	702.2	703.0	705.6	55.07	705.6	49.97
21	705.6	706.4	707.8	51.61	707.8	45.94
22	707.8	708.6	709.4	50.10	709.4	45.92
23	709.4	710.2	711.8	49.08	711.8	45.35
24	711.8	712.4	714.6	50.38	714.6	43.57
25	714.6	715.2	724.6	46.72	724.6	31.39
26	724.6	725.6	726.8	34.19	726.8	29.34
27	726.8	728.2	730.0	33.62	730.0	29.99
28	730.0	730.6	732.2	31.81	732.2	28.40
29	732.2	733.0	735.2	29.77	735.2	27.14
30	735.2	736.0	738.6	29.50	738.6	24.85
31	738.6	739.2	742.0	27.06	742.0	23.51
32	742.0	743.4	746.8	25.09	746.8	19.79
33	746.8	747.6	750.2	22.14	750.2	17.45
34	750.2	751.0	751.4	21.82	751.4	19.17
35	751.4	752.4	753.6	21.25	753.6	16.28
36	753.6	755.4	757.0	19.50	757.0	16.81
37	757.0	758.8	761.2	20.27	761.2	18.52
38	761.2	762.6	770.6	21.12	770.6	13.77
39	770.6	771.4	775.0	15.71	775.0	11.07
40	775.0	776.6	777.4	12.92	777.4	10.04
41	777.4	779.2	780.0	12.02	780.0	10.56
42	780.0	781.8	782.2	12.30	782.2	10.55
43	782.2	783.6	785.4	12.30	785.4	10.80
44	785.4	786.2	787.0	13.38	787.0	10.90
45	787.0	787.8	790.8	13.13	790.8	10.52
46	790.8	792.4	793.8	12.30	793.8	10.64
47	793.8	795.2	795.6	12.63	795.6	10.79
48	795.6	796.4	797.4	13.58	797.4	11.51

Data points
nm	Data
370.0	6.271
370.2	6.839
370.4	6.115
370.6	5.007
370.8	5.429
371.0	5.819
371.2	5.857
371.4	5.699
371.6	5.900
371.8	5.753
372.0	6.911
372.2	6.873
372.4	6.529
372.6	5.838
372.8	5.524
373.0	5.508
373.2	5.835
373.4	6.002
373.6	6.853
373.8	6.824
374.0	6.891
374.2	6.386
374.4	5.749
374.6	5.196
374.8	5.857
375.0	5.793
375.2	6.490
375.4	6.411
375.6	6.073
375.8	5.687
376.0	6.072
376.2	6.250
376.4	6.580
376.6	6.489
376.8	6.463
377.0	6.290
377.2	6.707
377.4	6.952
377.6	6.888
377.8	6.657
378.0	6.104
378.2	5.627
378.4	6.478
378.6	6.731
378.8	7.455
379.0	7.939
379.2	7.318
379.4	6.527
379.6	6.528
379.8	5.985
380.0	6.085
380.2	6.541
380.4	6.272
380.6	6.008
380.8	5.904
381.0	6.132
381.2	6.886
381.4	7.295
381.6	6.931
381.8	6.863
382.0	6.832
382.2	6.949
382.4	7.474
382.6	7.549
382.8	7.637
383.0	7.881
383.2	7.827
383.4	8.080
383.6	8.540
383.8	8.837
384.0	8.408
384.2	7.577
384.4	6.299
384.6	5.836
384.8	6.509
385.0	7.070
385.2	7.249
385.4	7.715
385.6	7.720
385.8	7.515
386.0	7.581
386.2	7.690
386.4	8.076
386.6	8.210
386.8	7.856
387.0	6.842
387.2	6.342
387.4	6.824
387.6	7.795
387.8	8.315
388.0	8.490
388.2	7.666
388.4	7.885
388.6	8.109
388.8	8.037
389.0	8.375
389.2	8.351
389.4	7.478
389.6	7.429
389.8	7.294
390.0	7.154
390.2	7.547
390.4	8.125
390.6	7.407
390.8	7.684
391.0	8.316
391.2	9.366
391.4	9.803
391.6	10.07
391.8	8.455
392.0	7.857
392.2	7.550
392.4	8.064
392.6	8.711
392.8	9.519
393.0	9.144
393.2	9.000
393.4	8.878
393.6	8.500
393.8	8.832
394.0	9.571
394.2	9.875
394.4	10.09
394.6	10.49
394.8	10.21
395.0	9.860
395.2	9.775
395.4	9.743
395.6	9.866
395.8	10.01
396.0	10.01
396.2	9.488
396.4	9.288
396.6	9.160
396.8	9.588
397.0	10.13
397.2	11.54
397.4	11.80
397.6	11.61
397.8	11.43
398.0	11.24
398.2	11.16
398.4	11.93
398.6	11.65
398.8	11.46
399.0	11.14
399.2	10.58
399.4	11.04
399.6	11.67
399.8	12.79
400.0	13.26
400.2	13.02
400.4	12.34
400.6	11.99
400.8	12.24
401.0	12.39
401.2	12.05
401.4	12.59
401.6	12.35
401.8	12.39
402.0	13.22
402.2	13.02
402.4	13.55
402.6	14.20
402.8	13.93
403.0	14.25
403.2	15.43
403.4	15.92
403.6	16.90
403.8	17.48
404.0	17.39
404.2	16.32
404.4	16.80
404.6	16.35
404.8	15.98
405.0	16.55
405.2	16.02
405.4	16.04
405.6	16.96
405.8	17.38
406.0	17.55
406.2	18.28
406.4	18.13
406.6	18.64
406.8	19.17
407.0	20.15
407.2	20.79
407.4	21.86
407.6	21.34
407.8	21.17
408.0	21.10
408.2	21.05
408.4	22.47
408.6	24.18
408.8	24.06
409.0	25.79
409.2	25.95
409.4	24.99
409.6	26.25
409.8	26.34
410.0	25.55
410.2	26.20
410.4	26.90
410.6	27.58
410.8	28.37
411.0	28.65
411.2	29.76
411.4	30.79
411.6	31.69
411.8	32.30
412.0	31.84
412.2	32.98
412.4	34.29
412.6	34.73
412.8	33.60
413.0	33.57
413.2	33.64
413.4	35.46
413.6	36.55
413.8	37.40
414.0	38.50
414.2	40.67
414.4	42.05
414.6	43.43
414.8	44.29
415.0	45.61
415.2	46.93
415.4	49.07
415.6	49.40
415.8	49.12
416.0	49.10
416.2	50.75
416.4	53.01
416.6	56.30
416.8	58.50
417.0	57.94
417.2	58.32
417.4	60.10
417.6	61.88
417.8	66.12
418.0	68.42
418.2	69.30
418.4	71.51
418.6	74.13
418.8	75.56
419.0	79.14
419.2	79.62
419.4	82.57
419.6	86.99
419.8	89.20
420.0	91.13
420.2	92.22
420.4	93.89
420.6	96.62
420.8	101.1
421.0	103.6
421.2	105.9
421.4	108.3
421.6	110.1
421.8	113.1
422.0	117.1
422.2	122.1
422.4	126.6
422.6	131.0
422.8	132.9
423.0	137.2
423.2	142.7
423.4	147.9
423.6	153.2
423.8	158.2
424.0	164.6
424.2	169.9
424.4	174.7
424.6	180.1
424.8	184.0
425.0	189.6
425.2	196.8
425.4	205.4
425.6	211.0
425.8	219.7
426.0	222.6
426.2	225.7
426.4	231.8
426.6	242.2
426.8	246.9
427.0	256.6
427.2	263.9
427.4	272.0
427.6	283.4
427.8	295.7
428.0	302.2
428.2	314.4
428.4	324.4
428.6	335.0
428.8	344.9
429.0	358.1
429.2	368.5
429.4	380.3
429.6	393.8
429.8	406.6
430.0	421.8
430.2	435.4
430.4	445.3
430.6	454.4
430.8	470.2
431.0	483.0
431.2	501.0
431.4	516.4
431.6	529.5
431.8	542.8
432.0	560.7
432.2	574.6
432.4	589.7
432.6	605.7
432.8	624.3
433.0	640.5
433.2	659.2
433.4	676.1
433.6	695.7
433.8	713.0
434.0	738.8
434.2	760.6
434.4	779.9
434.6	796.1
434.8	822.2
435.0	849.4
435.2	871.1
435.4	892.9
435.6	909.5
435.8	929.5
436.0	963.0
436.2	1001
436.4	1024
436.6	1042
436.8	1062
437.0	1088
437.2	1111
437.4	1136
437.6	1167
437.8	1187
438.0	1217
438.2	1250
438.4	1274
438.6	1303
438.8	1340
439.0	1374
439.2	1403
439.4	1434
439.6	1462
439.8	1497
440.0	1531
440.2	1565
440.4	1602
440.6	1637
440.8	1674
441.0	1710
441.2	1742
441.4	1762
441.6	1797
441.8	1826
442.0	1869
442.2	1908
442.4	1944
442.6	1974
442.8	2009
443.0	2041
443.2	2088
443.4	2131
443.6	2172
443.8	2211
444.0	2237
444.2	2264
444.4	2303
444.6	2340
444.8	2374
445.0	2416
445.2	2456
445.4	2505
445.6	2564
445.8	2604
446.0	2637
446.2	2669
446.4	2699
446.6	2728
446.8	2763
447.0	2803
447.2	2855
447.4	2903
447.6	2939
447.8	2969
448.0	3015
448.2	3063
448.4	3113
448.6	3148
448.8	3179
449.0	3211
449.2	3262
449.4	3303
449.6	3359
449.8	3396
450.0	3455
450.2	3497
450.4	3544
450.6	3580
450.8	3607
451.0	3626
451.2	3674
451.4	3716
451.6	3768
451.8	3805
452.0	3829
452.2	3860
452.4	3902
452.6	3958
452.8	3997
453.0	4027
453.2	4066
453.4	4117
453.6	4170
453.8	4222
454.0	4244
454.2	4274
454.4	4307
454.6	4352
454.8	4411
455.0	4460
455.2	4499
455.4	4542
455.6	4574
455.8	4603
456.0	4654
456.2	4699
456.4	4730
456.6	4762
456.8	4774
457.0	4825
457.2	4882
457.4	4942
457.6	4993
457.8	5041
458.0	5054
458.2	5098
458.4	5134
458.6	5185
458.8	5244
459.0	5292
459.2	5316
459.4	5341
459.6	5377
459.8	5410
460.0	5438
460.2	5473
460.4	5503
460.6	5555
460.8	5615
461.0	5671
461.2	5696
461.4	5735
461.6	5763
461.8	5809
462.0	5861
462.2	5924
462.4	5954
462.6	5994
462.8	6012
463.0	6039
463.2	6080
463.4	6130
463.6	6162
463.8	6198
464.0	6235
464.2	6272
464.4	6310
464.6	6341
464.8	6365
465.0	6405
465.2	6469
465.4	6516
465.6	6564
465.8	6590
466.0	6621
466.2	6657
466.4	6693
466.6	6736
466.8	6780
467.0	6810
467.2	6832
467.4	6860
467.6	6893
467.8	6948
468.0	6993
468.2	7023
468.4	7053
468.6	7070
468.8	7094
469.0	7117
469.2	7145
469.4	7182
469.6	7231
469.8	7246
470.0	7274
470.2	7297
470.4	7319
470.6	7360
470.8	7383
471.0	7390
471.2	7433
471.4	7495
471.6	7524
471.8	7556
472.0	7565
472.2	7561
472.4	7585
472.6	7634
472.8	7681
473.0	7728
473.2	7754
473.4	7764
473.6	7761
473.8	7769
474.0	7794
474.2	7814
474.4	7856
474.6	7904
474.8	7951
475.0	7974
475.2	7982
475.4	7974
475.6	8003
475.8	8018
476.0	8045
476.2	8046
476.4	8068
476.6	8092
476.8	8134
477.0	8156
477.2	8156
477.4	8160
477.6	8182
477.8	8171
478.0	8187
478.2	8218
478.4	8244
478.6	8282
478.8	8292
479.0	8300
479.2	8308
479.4	8337
479.6	8346
479.8	8355
480.0	8361
480.2	8392
480.4	8401
480.6	8419
480.8	8432
481.0	8429
481.2	8432
481.4	8410
481.6	8409
481.8	8414
482.0	8434
482.2	8449
482.4	8478
482.6	8496
482.8	8519
483.0	8541
483.2	8537
483.4	8548
483.6	8554
483.8	8549
484.0	8543
484.2	8554
484.4	8544
484.6	8557
484.8	8567
485.0	8576
485.2	8586
485.4	8578
485.6	8571
485.8	8571
486.0	8588
486.2	8601
486.4	8620
486.6	8600
486.8	8591
487.0	8595
487.2	8610
487.4	8594
487.6	8586
487.8	8567
488.0	8559
488.2	8586
488.4	8588
488.6	8565
488.8	8530
489.0	8509
489.2	8484
489.4	8502
489.6	8509
489.8	8518
490.0	8535
490.2	8538
490.4	8517
490.6	8506
490.8	8482
491.0	8465
491.2	8447
491.4	8415
491.6	8413
491.8	8423
492.0	8425
492.2	8430
492.4	8434
492.6	8418
492.8	8407
493.0	8412
493.2	8399
493.4	8377
493.6	8387
493.8	8371
494.0	8339
494.2	8323
494.4	8310
494.6	8316
494.8	8320
495.0	8301
495.2	8281
495.4	8249
495.6	8215
495.8	8221
496.0	8201
496.2	8187
496.4	8169
496.6	8148
496.8	8108
497.0	8118
497.2	8101
497.4	8092
497.6	8074
497.8	8039
498.0	8006
498.2	8001
498.4	7976
498.6	7952
498.8	7954
499.0	7951
499.2	7930
499.4	7896
499.6	7869
499.8	7846
500.0	7845
500.2	7839
500.4	7810
500.6	7766
500.8	7733
501.0	7705
501.2	7682
501.4	7639
501.6	7633
501.8	7636
502.0	7612
502.2	7621
502.4	7592
502.6	7561
502.8	7558
503.0	7542
503.2	7504
503.4	7483
503.6	7447
503.8	7431
504.0	7398
504.2	7387
504.4	7364
504.6	7321
504.8	7310
505.0	7289
505.2	7261
505.4	7251
505.6	7223
505.8	7189
506.0	7165
506.2	7133
506.4	7105
506.6	7077
506.8	7057
507.0	7024
507.2	6995
507.4	6972
507.6	6951
507.8	6950
508.0	6945
508.2	6921
508.4	6898
508.6	6876
508.8	6852
509.0	6808
509.2	6767
509.4	6727
509.6	6713
509.8	6696
510.0	6686
510.2	6649
510.4	6613
510.6	6579
510.8	6552
511.0	6514
511.2	6485
511.4	6463
511.6	6440
511.8	6439
512.0	6407
512.2	6380
512.4	6354
512.6	6340
512.8	6316
513.0	6294
513.2	6251
513.4	6230
513.6	6200
513.8	6177
514.0	6157
514.2	6126
514.4	6082
514.6	6069
514.8	6048
515.0	6020
515.2	6006
515.4	5980
515.6	5938
515.8	5922
516.0	5915
516.2	5885
516.4	5856
516.6	5826
516.8	5794
517.0	5768
517.2	5760
517.4	5740
517.6	5710
517.8	5686
518.0	5667
518.2	5639
518.4	5617
518.6	5594
518.8	5563
519.0	5532
519.2	5507
519.4	5488
519.6	5463
519.8	5429
520.0	5389
520.2	5373
520.4	5353
520.6	5337
520.8	5308
521.0	5276
521.2	5240
521.4	5224
521.6	5205
521.8	5183
522.0	5161
522.2	5147
522.4	5131
522.6	5112
522.8	5095
523.0	5069
523.2	5050
523.4	5015
523.6	4982
523.8	4953
524.0	4936
524.2	4910
524.4	4878
524.6	4848
524.8	4826
525.0	4822
525.2	4829
525.4	4800
525.6	4769
525.8	4749
526.0	4731
526.2	4719
526.4	4713
526.6	4678
526.8	4671
527.0	4657
527.2	4644
527.4	4616
527.6	4588
527.8	4542
528.0	4508
528.2	4483
528.4	4466
528.6	4461
528.8	4456
529.0	4448
529.2	4431
529.4	4413
529.6	4380
529.8	4355
530.0	4326
530.2	4329
530.4	4327
530.6	4326
530.8	4313
531.0	4286
531.2	4246
531.4	4233
531.6	4207
531.8	4188
532.0	4161
532.2	4134
532.4	4112
532.6	4108
532.8	4086
533.0	4069
533.2	4047
533.4	4024
533.6	4009
533.8	3991
534.0	3980
534.2	3960
534.4	3940
534.6	3916
534.8	3895
535.0	3888
535.2	3885
535.4	3874
535.6	3866
535.8	3849
536.0	3830
536.2	3806
536.4	3776
536.6	3749
536.8	3726
537.0	3717
537.2	3721
537.4	3700
537.6	3696
537.8	3694
538.0	3660
538.2	3648
538.4	3636
538.6	3601
538.8	3580
539.0	3580
539.2	3563
539.4	3549
539.6	3527
539.8	3509
540.0	3482
540.2	3471
540.4	3472
540.6	3452
540.8	3439
541.0	3438
541.2	3428
541.4	3410
541.6	3401
541.8	3379
542.0	3358
542.2	3328
542.4	3312
542.6	3296
542.8	3285
543.0	3278
543.2	3274
543.4	3259
543.6	3254
543.8	3246
544.0	3211
544.2	3180
544.4	3162
544.6	3147
544.8	3141
545.0	3144
545.2	3137
545.4	3114
545.6	3095
545.8	3085
546.0	3066
546.2	3057
546.4	3050
546.6	3026
546.8	3016
547.0	3009
547.2	2992
547.4	2981
547.6	2959
547.8	2936
548.0	2927
548.2	2912
548.4	2902
548.6	2890
548.8	2866
549.0	2849
549.2	2837
549.4	2829
549.6	2824
549.8	2803
550.0	2787
550.2	2770
550.4	2762
550.6	2760
550.8	2758
551.0	2750
551.2	2742
551.4	2717
551.6	2693
551.8	2673
552.0	2664
552.2	2652
552.4	2640
552.6	2629
552.8	2607
553.0	2599
553.2	2594
553.4	2588
553.6	2571
553.8	2559
554.0	2540
554.2	2533
554.4	2517
554.6	2512
554.8	2502
555.0	2478
555.2	2464
555.4	2456
555.6	2436
555.8	2434
556.0	2431
556.2	2415
556.4	2397
556.6	2384
556.8	2362
557.0	2349
557.2	2337
557.4	2321
557.6	2308
557.8	2305
558.0	2308
558.2	2302
558.4	2293
558.6	2279
558.8	2265
559.0	2255
559.2	2249
559.4	2236
559.6	2211
559.8	2200
560.0	2190
560.2	2185
560.4	2171
560.6	2151
560.8	2128
561.0	2111
561.2	2100
561.4	2092
561.6	2084
561.8	2078
562.0	2080
562.2	2077
562.4	2066
562.6	2054
562.8	2035
563.0	2032
563.2	2029
563.4	2026
563.6	2013
563.8	1999
564.0	1976
564.2	1959
564.4	1949
564.6	1942
564.8	1928
565.0	1918
565.2	1915
565.4	1905
565.6	1902
565.8	1897
566.0	1886
566.2	1869
566.4	1857
566.6	1835
566.8	1822
567.0	1823
567.2	1821
567.4	1820
567.6	1817
567.8	1801
568.0	1781
568.2	1779
568.4	1772
568.6	1767
568.8	1759
569.0	1746
569.2	1727
569.4	1722
569.6	1726
569.8	1719
570.0	1712
570.2	1694
570.4	1686
570.6	1678
570.8	1676
571.0	1669
571.2	1659
571.4	1636
571.6	1628
571.8	1623
572.0	1617
572.2	1606
572.4	1602
572.6	1600
572.8	1598
573.0	1595
573.2	1580
573.4	1566
573.6	1553
573.8	1548
574.0	1543
574.2	1536
574.4	1529
574.6	1525
574.8	1512
575.0	1502
575.2	1493
575.4	1485
575.6	1467
575.8	1460
576.0	1454
576.2	1445
576.4	1443
576.6	1432
576.8	1418
577.0	1413
577.2	1414
577.4	1405
577.6	1407
577.8	1394
578.0	1387
578.2	1370
578.4	1363
578.6	1357
578.8	1358
579.0	1356
579.2	1351
579.4	1344
579.6	1337
579.8	1330
580.0	1329
580.2	1322
580.4	1316
580.6	1316
580.8	1302
581.0	1293
581.2	1285
581.4	1273
581.6	1266
581.8	1265
582.0	1253
582.2	1244
582.4	1238
582.6	1231
582.8	1226
583.0	1227
583.2	1223
583.4	1218
583.6	1221
583.8	1213
584.0	1208
584.2	1205
584.4	1195
584.6	1191
584.8	1191
585.0	1184
585.2	1182
585.4	1179
585.6	1163
585.8	1151
586.0	1145
586.2	1138
586.4	1134
586.6	1130
586.8	1122
587.0	1117
587.2	1121
587.4	1119
587.6	1105
587.8	1091
588.0	1084
588.2	1080
588.4	1086
588.6	1082
588.8	1070
589.0	1059
589.2	1051
589.4	1047
589.6	1043
589.8	1046
590.0	1043
590.2	1034
590.4	1025
590.6	1018
590.8	1014
591.0	1017
591.2	1015
591.4	1007
591.6	1002
591.8	991.8
592.0	987.7
592.2	984.4
592.4	979.4
592.6	971.5
592.8	967.5
593.0	963.4
593.2	960.7
593.4	961.3
593.6	954.8
593.8	943.2
594.0	934.7
594.2	931.0
594.4	927.3
594.6	929.2
594.8	927.4
595.0	919.9
595.2	916.3
595.4	913.7
595.6	911.1
595.8	911.8
596.0	910.4
596.2	901.3
596.4	894.9
596.6	884.6
596.8	870.8
597.0	866.1
597.2	861.4
597.4	856.8
597.6	861.3
597.8	854.5
598.0	849.7
598.2	849.4
598.4	847.0
598.6	845.8
598.8	846.8
599.0	837.6
599.2	828.1
599.4	816.3
599.6	810.8
599.8	811.9
600.0	815.7
600.2	816.8
600.4	811.9
600.6	800.0
600.8	789.3
601.0	788.8
601.2	786.7
601.4	784.0
601.6	780.8
601.8	771.7
602.0	760.0
602.2	756.5
602.4	748.5
602.6	750.2
602.8	747.1
603.0	746.1
603.2	744.3
603.4	741.8
603.6	734.5
603.8	734.3
604.0	727.5
604.2	724.9
604.4	723.2
604.6	718.1
604.8	714.0
605.0	708.2
605.2	711.4
605.4	715.5
605.6	716.3
605.8	706.6
606.0	698.7
606.2	688.0
606.4	686.2
606.6	687.4
606.8	682.6
607.0	673.5
607.2	665.5
607.4	661.7
607.6	660.5
607.8	660.0
608.0	659.6
608.2	652.9
608.4	648.2
608.6	648.1
608.8	649.4
609.0	643.9
609.2	641.0
609.4	629.8
609.6	626.3
609.8	626.3
610.0	626.9
610.2	625.8
610.4	623.2
610.6	615.8
610.8	610.4
611.0	604.4
611.2	598.6
611.4	597.3
611.6	595.8
611.8	598.5
612.0	601.7
612.2	596.7
612.4	589.9
612.6	585.4
612.8	584.6
613.0	584.6
613.2	580.2
613.4	572.7
613.6	563.0
613.8	557.4
614.0	558.3
614.2	565.9
614.4	567.4
614.6	564.8
614.8	556.4
615.0	547.2
615.2	540.5
615.4	543.0
615.6	541.0
615.8	536.6
616.0	536.1
616.2	534.1
616.4	533.0
616.6	531.0
616.8	524.9
617.0	521.8
617.2	523.6
617.4	523.3
617.6	524.9
617.8	522.9
618.0	514.9
618.2	509.4
618.4	508.5
618.6	505.4
618.8	506.7
619.0	505.2
619.2	501.2
619.4	494.0
619.6	491.7
619.8	488.3
620.0	483.5
620.2	479.1
620.4	474.0
620.6	469.9
620.8	470.3
621.0	469.8
621.2	465.6
621.4	466.5
621.6	464.4
621.8	463.4
622.0	463.7
622.2	459.9
622.4	455.7
622.6	447.9
622.8	442.2
623.0	437.7
623.2	436.8
623.4	437.2
623.6	438.0
623.8	431.0
624.0	432.9
624.2	428.1
624.4	422.4
624.6	419.7
624.8	414.7
625.0	415.5
625.2	425.1
625.4	423.4
625.6	419.8
625.8	416.1
626.0	405.2
626.2	401.2
626.4	401.6
626.6	401.5
626.8	399.3
627.0	400.9
627.2	398.5
627.4	393.2
627.6	392.8
627.8	393.2
628.0	389.0
628.2	387.7
628.4	385.2
628.6	380.1
628.8	379.5
629.0	375.7
629.2	369.6
629.4	366.7
629.6	362.7
629.8	361.7
630.0	365.3
630.2	364.3
630.4	362.7
630.6	362.1
630.8	356.1
631.0	355.3
631.2	356.2
631.4	356.3
631.6	352.9
631.8	346.2
632.0	336.9
632.2	333.5
632.4	330.8
632.6	333.1
632.8	333.7
633.0	330.2
633.2	326.0
633.4	326.8
633.6	324.7
633.8	321.1
634.0	324.0
634.2	316.5
634.4	310.6
634.6	312.0
634.8	310.9
635.0	306.6
635.2	307.6
635.4	300.7
635.6	300.1
635.8	302.4
636.0	300.6
636.2	298.7
636.4	296.8
636.6	294.5
636.8	295.5
637.0	291.6
637.2	287.4
637.4	288.3
637.6	286.4
637.8	284.1
638.0	281.5
638.2	278.7
638.4	278.4
638.6	278.6
638.8	276.4
639.0	273.0
639.2	265.5
639.4	264.5
639.6	261.8
639.8	263.3
640.0	262.5
640.2	261.6
640.4	257.4
640.6	255.5
640.8	251.9
641.0	252.2
641.2	250.6
641.4	252.5
641.6	251.0
641.8	251.2
642.0	252.7
642.2	249.3
642.4	247.7
642.6	243.7
642.8	234.8
643.0	233.3
643.2	234.6
643.4	232.9
643.6	234.6
643.8	232.9
644.0	232.2
644.2	232.4
644.4	233.9
644.6	231.8
644.8	231.1
645.0	229.8
645.2	227.6
645.4	224.5
645.6	223.1
645.8	219.5
646.0	219.4
646.2	217.3
646.4	212.6
646.6	214.4
646.8	217.3
647.0	219.4
647.2	219.2
647.4	215.3
647.6	209.3
647.8	206.5
648.0	207.0
648.2	207.9
648.4	208.1
648.6	211.5
648.8	211.8
649.0	210.2
649.2	205.2
649.4	199.5
649.6	195.3
649.8	194.8
650.0	195.6
650.2	197.5
650.4	194.9
650.6	193.3
650.8	192.9
651.0	191.3
651.2	189.9
651.4	188.8
651.6	186.5
651.8	185.2
652.0	185.3
652.2	184.5
652.4	186.6
652.6	186.7
652.8	185.2
653.0	181.4
653.2	176.3
653.4	177.4
653.6	177.7
653.8	176.1
654.0	180.5
654.2	179.9
654.4	176.3
654.6	177.2
654.8	173.9
655.0	170.4
655.2	173.6
655.4	171.0
655.6	165.5
655.8	164.0
656.0	164.3
656.2	165.1
656.4	167.2
656.6	165.8
656.8	162.8
657.0	161.6
657.2	159.2
657.4	158.1
657.6	157.9
657.8	158.0
658.0	158.4
658.2	157.9
658.4	156.7
658.6	156.2
658.8	156.4
659.0	156.2
659.2	157.7
659.4	156.0
659.6	153.6
659.8	149.5
660.0	147.5
660.2	147.6
660.4	148.1
660.6	147.1
660.8	143.4
661.0	140.1
661.2	140.2
661.4	141.3
661.6	143.5
661.8	144.8
662.0	144.0
662.2	141.3
662.4	139.7
662.6	135.0
662.8	135.4
663.0	134.6
663.2	135.0
663.4	133.5
663.6	136.1
663.8	134.3
664.0	134.6
664.2	134.3
664.4	132.7
664.6	132.3
664.8	133.4
665.0	130.5
665.2	131.1
665.4	132.6
665.6	134.2
665.8	133.7
666.0	130.1
666.2	125.2
666.4	125.0
666.6	125.8
666.8	128.5
667.0	127.5
667.2	123.2
667.4	121.4
667.6	120.8
667.8	120.0
668.0	121.5
668.2	120.2
668.4	120.1
668.6	121.4
668.8	120.0
669.0	117.5
669.2	116.8
669.4	114.2
669.6	116.1
669.8	116.0
670.0	113.8
670.2	113.2
670.4	113.3
670.6	110.8
670.8	110.6
671.0	111.1
671.2	110.7
671.4	112.2
671.6	112.8
671.8	110.2
672.0	109.1
672.2	108.1
672.4	105.2
672.6	103.6
672.8	102.9
673.0	101.8
673.2	102.3
673.4	103.5
673.6	103.0
673.8	102.5
674.0	102.2
674.2	99.23
674.4	98.91
674.6	100.2
674.8	100.2
675.0	100.8
675.2	98.84
675.4	95.61
675.6	93.86
675.8	91.43
676.0	91.45
676.2	95.01
676.4	95.89
676.6	96.88
676.8	95.07
677.0	91.16
677.2	89.95
677.4	90.30
677.6	89.10
677.8	89.14
678.0	90.06
678.2	90.87
678.4	92.56
678.6	91.37
678.8	90.44
679.0	89.33
679.2	88.55
679.4	89.57
679.6	89.95
679.8	87.59
680.0	87.47
680.2	86.40
680.4	84.61
680.6	84.04
680.8	82.59
681.0	80.25
681.2	78.81
681.4	80.42
681.6	81.73
681.8	79.70
682.0	80.84
682.2	81.99
682.4	81.37
682.6	81.49
682.8	80.67
683.0	77.92
683.2	79.26
683.4	82.65
683.6	83.22
683.8	81.27
684.0	79.96
684.2	78.42
684.4	77.73
684.6	78.24
684.8	76.61
685.0	74.84
685.2	75.68
685.4	76.70
685.6	76.97
685.8	79.07
686.0	77.63
686.2	77.66
686.4	79.64
686.6	79.37
686.8	78.67
687.0	79.01
687.2	76.67
687.4	76.24
687.6	75.37
687.8	73.86
688.0	72.15
688.2	71.57
688.4	71.86
688.6	74.21
688.8	73.66
689.0	73.53
689.2	71.31
689.4	69.93
689.6	70.06
689.8	69.74
690.0	69.17
690.2	69.60
690.4	68.72
690.6	67.93
690.8	69.03
691.0	67.59
691.2	69.19
691.4	68.72
691.6	66.87
691.8	66.38
692.0	65.29
692.2	65.22
692.4	68.19
692.6	69.75
692.8	70.16
693.0	69.74
693.2	67.09
693.4	63.51
693.6	63.88
693.8	65.06
694.0	65.36
694.2	67.31
694.4	67.72
694.6	65.67
694.8	65.30
695.0	63.14
695.2	61.34
695.4	61.04
695.6	61.00
695.8	61.65
696.0	62.62
696.2	63.89
696.4	62.96
696.6	61.29
696.8	58.62
697.0	57.53
697.2	56.39
697.4	58.20
697.6	59.45
697.8	59.13
698.0	57.40
698.2	57.05
698.4	55.66
698.6	56.97
698.8	59.10
699.0	56.66
699.2	54.94
699.4	54.52
699.6	55.03
699.8	56.95
700.0	57.98
700.2	57.33
700.4	56.75
700.6	55.34
700.8	54.96
701.0	54.71
701.2	54.77
701.4	55.52
701.6	55.68
701.8	54.08
702.0	52.88
702.2	51.67
702.4	52.61
702.6	52.38
702.8	53.50
703.0	55.07
703.2	54.11
703.4	53.79
703.6	52.52
703.8	50.70
704.0	51.35
704.2	52.18
704.4	50.64
704.6	51.08
704.8	50.26
705.0	50.42
705.2	50.92
705.4	50.54
705.6	49.97
705.8	50.01
706.0	50.33
706.2	51.46
706.4	51.61
706.6	50.82
706.8	51.21
707.0	49.85
707.2	49.01
707.4	48.31
707.6	47.19
707.8	45.94
708.0	46.94
708.2	47.58
708.4	49.98
708.6	50.10
708.8	49.97
709.0	48.73
709.2	47.06
709.4	45.92
709.6	46.45
709.8	46.27
710.0	46.69
710.2	49.08
710.4	48.16
710.6	48.28
710.8	48.92
711.0	48.59
711.2	48.86
711.4	49.00
711.6	46.00
711.8	45.35
712.0	47.60
712.2	48.77
712.4	50.38
712.6	48.55
712.8	46.70
713.0	45.74
713.2	46.66
713.4	46.83
713.6	47.65
713.8	46.07
714.0	45.97
714.2	44.04
714.4	43.70
714.6	43.57
714.8	44.27
715.0	45.99
715.2	46.72
715.4	45.29
715.6	44.69
715.8	43.12
716.0	42.15
716.2	42.35
716.4	41.73
716.6	41.48
716.8	42.06
717.0	41.86
717.2	41.23
717.4	39.50
717.6	38.38
717.8	38.11
718.0	40.35
718.2	40.86
718.4	40.13
718.6	39.78
718.8	38.21
719.0	37.16
719.2	37.14
719.4	36.76
719.6	37.34
719.8	38.28
720.0	37.48
720.2	37.03
720.4	36.34
720.6	35.80
720.8	37.07
721.0	37.23
721.2	37.39
721.4	38.00
721.6	37.00
721.8	35.69
722.0	35.96
722.2	35.66
722.4	35.42
722.6	35.84
722.8	35.97
723.0	35.92
723.2	35.97
723.4	35.11
723.6	34.47
723.8	33.83
724.0	33.85
724.2	33.19
724.4	32.55
724.6	31.39
724.8	31.77
725.0	32.46
725.2	33.21
725.4	34.09
725.6	34.19
725.8	33.47
726.0	32.76
726.2	31.77
726.4	30.50
726.6	29.63
726.8	29.34
727.0	30.37
727.2	31.25
727.4	31.73
727.6	32.59
727.8	33.00
728.0	33.35
728.2	33.62
728.4	32.85
728.6	31.26
728.8	31.41
729.0	31.21
729.2	31.31
729.4	32.04
729.6	31.40
729.8	30.00
730.0	29.99
730.2	30.11
730.4	30.62
730.6	31.81
730.8	31.00
731.0	30.75
731.2	30.10
731.4	30.43
731.6	30.38
731.8	30.24
732.0	28.78
732.2	28.40
732.4	28.76
732.6	28.94
732.8	29.14
733.0	29.77
733.2	29.15
733.4	28.42
733.6	28.81
733.8	28.81
734.0	28.32
734.2	28.91
734.4	28.59
734.6	27.93
734.8	27.88
735.0	27.14
735.2	27.14
735.4	27.65
735.6	28.62
735.8	28.85
736.0	29.50
736.2	28.12
736.4	28.36
736.6	28.09
736.8	28.57
737.0	28.55
737.2	28.43
737.4	27.82
737.6	26.81
737.8	26.13
738.0	26.17
738.2	25.79
738.4	25.07
738.6	24.85
738.8	25.33
739.0	26.54
739.2	27.06
739.4	26.77
739.6	25.17
739.8	24.71
740.0	25.37
740.2	25.69
740.4	25.87
740.6	25.22
740.8	24.21
741.0	24.54
741.2	24.18
741.4	24.02
741.6	24.24
741.8	23.55
742.0	23.51
742.2	24.29
742.4	25.00
742.6	24.77
742.8	24.86
743.0	24.52
743.2	24.24
743.4	25.09
743.6	24.67
743.8	23.89
744.0	23.01
744.2	22.80
744.4	22.26
744.6	23.02
744.8	22.48
745.0	23.00
745.2	21.70
745.4	21.30
745.6	20.77
745.8	22.18
746.0	22.10
746.2	22.69
746.4	21.84
746.6	20.66
746.8	19.79
747.0	20.78
747.2	21.10
747.4	21.78
747.6	22.14
747.8	22.00
748.0	21.50
748.2	21.22
748.4	21.18
748.6	20.34
748.8	20.99
749.0	21.24
749.2	21.08
749.4	20.14
749.6	19.05
749.8	18.37
750.0	18.00
750.2	17.45
750.4	18.90
750.6	19.67
750.8	20.51
751.0	21.82
751.2	20.91
751.4	19.17
751.6	19.79
751.8	19.54
752.0	20.18
752.2	21.09
752.4	21.25
752.6	20.58
752.8	20.27
753.0	19.13
753.2	17.80
753.4	17.07
753.6	16.28
753.8	17.63
754.0	18.29
754.2	19.06
754.4	18.99
754.6	19.11
754.8	18.81
755.0	19.43
755.2	19.46
755.4	19.50
755.6	19.09
755.8	17.95
756.0	17.48
756.2	17.90
756.4	17.69
756.6	17.46
756.8	16.98
757.0	16.81
757.2	17.33
757.4	18.10
757.6	18.31
757.8	18.95
758.0	18.69
758.2	19.59
758.4	19.38
758.6	19.74
758.8	20.27
759.0	20.24
759.2	19.57
759.4	19.42
759.6	19.19
759.8	19.40
760.0	19.28
760.2	19.30
760.4	19.16
760.6	19.32
760.8	19.51
761.0	18.77
761.2	18.52
761.4	18.76
761.6	19.18
761.8	19.69
762.0	19.67
762.2	19.89
762.4	20.84
762.6	21.12
762.8	20.46
763.0	19.96
763.2	18.59
763.4	17.84
763.6	18.82
763.8	18.87
764.0	18.33
764.2	18.98
764.4	18.42
764.6	17.65
764.8	18.37
765.0	18.20
765.2	18.22
765.4	18.97
765.6	18.86
765.8	18.46
766.0	18.15
766.2	17.67
766.4	18.10
766.6	18.06
766.8	17.94
767.0	18.56
767.2	18.10
767.4	17.14
767.6	18.00
767.8	17.08
768.0	16.78
768.2	17.01
768.4	17.04
768.6	15.93
768.8	16.29
769.0	16.08
769.2	16.06
769.4	15.61
769.6	16.19
769.8	15.68
770.0	15.18
770.2	15.70
770.4	14.93
770.6	13.77
770.8	14.28
771.0	14.67
771.2	14.66
771.4	15.71
771.6	15.68
771.8	14.26
772.0	13.37
772.2	13.07
772.4	13.62
772.6	14.23
772.8	14.56
773.0	14.13
773.2	13.42
773.4	12.74
773.6	12.92
773.8	12.54
774.0	12.68
774.2	12.90
774.4	13.25
774.6	12.34
774.8	11.69
775.0	11.07
775.2	11.44
775.4	12.35
775.6	12.86
775.8	12.82
776.0	12.79
776.2	12.41
776.4	12.85
776.6	12.92
776.8	12.44
777.0	12.29
777.2	11.08
777.4	10.04
777.6	10.64
777.8	10.19
778.0	10.76
778.2	10.87
778.4	10.86
778.6	11.37
778.8	11.64
779.0	11.89
779.2	12.02
779.4	11.26
779.6	11.30
779.8	11.42
780.0	10.56
780.2	11.13
780.4	10.95
780.6	11.21
780.8	11.49
781.0	11.60
781.2	11.83
781.4	12.27
781.6	12.10
781.8	12.30
782.0	11.52
782.2	10.55
782.4	10.65
782.6	11.09
782.8	11.16
783.0	11.93
783.2	12.22
783.4	12.28
783.6	12.30
783.8	12.19
784.0	11.37
784.2	10.85
784.4	11.75
784.6	12.25
784.8	11.95
785.0	11.67
785.2	11.38
785.4	10.80
785.6	11.96
785.8	13.08
786.0	13.18
786.2	13.38
786.4	13.09
786.6	12.65
786.8	11.82
787.0	10.90
787.2	11.76
787.4	12.37
787.6	12.88
787.8	13.13
788.0	11.86
788.2	11.16
788.4	12.46
788.6	12.22
788.8	12.53
789.0	12.52
789.2	11.49
789.4	11.64
789.6	12.06
789.8	12.12
790.0	12.56
790.2	12.50
790.4	11.44
790.6	10.75
790.8	10.52
791.0	10.65
791.2	11.67
791.4	11.89
791.6	11.38
791.8	11.02
792.0	11.18
792.2	11.76
792.4	12.30
792.6	11.50
792.8	11.53
793.0	11.62
793.2	11.82
793.4	12.25
793.6	11.83
793.8	10.64
794.0	11.30
794.2	11.52
794.4	11.48
794.6	11.98
794.8	12.58
795.0	12.35
795.2	12.63
795.4	11.62
795.6	10.79
795.8	11.08
796.0	12.14
796.2	13.17
796.4	13.58
796.6	12.95
796.8	12.32
797.0	12.36
797.2	11.68
797.4	11.51
797.6	11.57
797.8	12.15
798.0	12.90
798.2	13.48
798.4	12.24
798.6	11.70
798.8	11.40
799.0	11.45
799.2	10.91
799.4	10.82
799.6	10.49
799.8	11.18
800.0	13.59

