Sample:	'20211010A(EM)
File name:	g-cds-cho 1;5 545v.FDS
Run date:	'09:25:09, 03/22/2023
Operator:	Administrator
Comment:	'

Instrument
Model:	F-4700 FL Spectrophotometer
Serial number:	2019-001
ROM Version:	5J24010 00

Instrument parameters
Measurement type:	Wavelength scan
Scan mode:	Emission
Data mode:	Fluorescence
EX WL:	400.0 nm
EM  Start WL:	420.0 nm
EM  End WL:	850.0 nm
Scan speed:	1200 nm/min
Delay:	0.0 s
EX Slit:	10.0 nm
EM Slit:	10.0 nm
PMT Voltage:	545 V
Response:	0.002 s
Corrected spectra:	Off
Shutter control:	On

Processing performed
Savitsky-Golay smoothed
Smoothing order:	3
Number of points:	7
Number of times:	1

Peak integration
Integration method:	Rectangular
Sensitivity:	1
Threshold:	1.000

Peaks
No.	Start(nm)	Apex(nm)	End(nm)	Height(Data)	Valley(nm)	Valley(Data)
1	420.0	428.8	430.6	8.671	430.6	7.517
2	430.6	540.4	541.8	9915	541.8	9870
3	541.8	543.2	728.6	9893	728.6	75.55
4	728.6	729.6	753.2	77.68	753.2	31.08
5	753.2	753.8	781.2	32.67	781.2	13.59
6	781.2	781.8	783.6	14.69	783.6	12.87
7	783.6	785.4	787.2	14.76	787.2	13.09
8	787.2	801.6	809.8	15.83	809.8	12.35
9	809.8	810.6	834.8	13.46	834.8	5.109
10	834.8	835.4	850.0	6.112	850.0	4.397

Data points
nm	Data
420.0	7.163
420.2	7.535
420.4	7.536
420.6	7.368
420.8	7.344
421.0	7.556
421.2	7.687
421.4	7.820
421.6	7.682
421.8	7.273
422.0	6.810
422.2	7.095
422.4	7.440
422.6	7.639
422.8	7.654
423.0	7.478
423.2	7.116
423.4	7.439
423.6	7.696
423.8	7.467
424.0	7.340
424.2	7.328
424.4	7.530
424.6	7.878
424.8	7.901
425.0	7.680
425.2	7.508
425.4	7.456
425.6	7.568
425.8	7.808
426.0	7.671
426.2	7.888
426.4	7.920
426.6	7.769
426.8	7.631
427.0	7.770
427.2	7.614
427.4	7.725
427.6	7.866
427.8	7.622
428.0	7.509
428.2	7.717
428.4	7.826
428.6	8.143
428.8	8.671
429.0	8.607
429.2	8.356
429.4	8.152
429.6	7.898
429.8	7.816
430.0	7.952
430.2	7.833
430.4	7.636
430.6	7.517
430.8	7.699
431.0	7.879
431.2	8.301
431.4	8.544
431.6	8.442
431.8	8.030
432.0	7.916
432.2	7.941
432.4	8.199
432.6	8.541
432.8	8.573
433.0	8.469
433.2	8.559
433.4	8.869
433.6	9.111
433.8	9.150
434.0	9.044
434.2	8.796
434.4	8.648
434.6	8.613
434.8	8.856
435.0	8.801
435.2	8.955
435.4	8.991
435.6	8.755
435.8	8.557
436.0	8.503
436.2	8.421
436.4	8.701
436.6	8.901
436.8	9.037
437.0	9.527
437.2	9.719
437.4	9.879
437.6	9.908
437.8	9.706
438.0	9.378
438.2	9.170
438.4	9.098
438.6	9.289
438.8	9.563
439.0	9.825
439.2	9.756
439.4	9.934
439.6	10.22
439.8	10.27
440.0	10.10
440.2	9.843
440.4	9.592
440.6	9.662
440.8	9.692
441.0	9.584
441.2	10.05
441.4	10.39
441.6	10.74
441.8	11.00
442.0	10.84
442.2	10.71
442.4	11.27
442.6	11.14
442.8	10.88
443.0	10.95
443.2	10.98
443.4	11.35
443.6	11.90
443.8	11.97
444.0	11.98
444.2	11.56
444.4	11.36
444.6	11.37
444.8	11.47
445.0	11.71
445.2	12.38
445.4	12.53
445.6	12.69
445.8	12.52
446.0	12.70
446.2	12.91
446.4	13.33
446.6	13.60
446.8	13.64
447.0	13.08
447.2	12.76
447.4	12.86
447.6	13.52
447.8	14.31
448.0	14.66
448.2	14.75
448.4	14.46
448.6	14.61
448.8	15.14
449.0	15.60
449.2	15.34
449.4	15.56
449.6	16.03
449.8	16.24
450.0	16.54
450.2	16.74
450.4	16.73
450.6	16.79
450.8	17.50
451.0	17.54
451.2	17.62
451.4	17.73
451.6	18.42
451.8	18.66
452.0	19.48
452.2	19.94
452.4	19.81
452.6	19.70
452.8	20.09
453.0	19.81
453.2	19.86
453.4	20.10
453.6	20.09
453.8	20.79
454.0	22.00
454.2	22.39
454.4	22.53
454.6	22.95
454.8	23.04
455.0	23.81
455.2	24.80
455.4	25.62
455.6	25.91
455.8	26.44
456.0	26.72
456.2	27.01
456.4	27.22
456.6	27.66
456.8	28.00
457.0	28.73
457.2	29.64
457.4	30.08
457.6	31.06
457.8	31.79
458.0	33.10
458.2	33.93
458.4	34.76
458.6	35.07
458.8	35.73
459.0	36.00
459.2	36.83
459.4	37.19
459.6	38.30
459.8	40.08
460.0	41.75
460.2	43.21
460.4	43.97
460.6	44.95
460.8	46.04
461.0	47.72
461.2	49.14
461.4	50.98
461.6	52.30
461.8	53.36
462.0	54.42
462.2	56.25
462.4	57.49
462.6	59.34
462.8	62.42
463.0	64.32
463.2	66.28
463.4	68.17
463.6	69.58
463.8	71.12
464.0	74.09
464.2	76.17
464.4	78.25
464.6	80.59
464.8	83.16
465.0	85.88
465.2	88.26
465.4	90.83
465.6	93.00
465.8	95.87
466.0	98.88
466.2	102.1
466.4	104.3
466.6	106.8
466.8	109.8
467.0	113.5
467.2	117.3
467.4	120.7
467.6	123.5
467.8	126.4
468.0	131.4
468.2	136.5
468.4	140.5
468.6	144.2
468.8	147.7
469.0	151.3
469.2	156.6
469.4	161.5
469.6	164.8
469.8	169.9
470.0	173.7
470.2	178.4
470.4	184.7
470.6	190.1
470.8	196.2
471.0	204.0
471.2	208.7
471.4	213.6
471.6	219.0
471.8	223.5
472.0	231.3
472.2	238.2
472.4	245.1
472.6	250.8
472.8	256.9
473.0	262.5
473.2	270.2
473.4	275.1
473.6	279.9
473.8	286.3
474.0	292.7
474.2	303.9
474.4	315.0
474.6	324.5
474.8	331.5
475.0	339.3
475.2	344.6
475.4	354.5
475.6	361.8
475.8	371.8
476.0	379.4
476.2	386.6
476.4	394.8
476.6	406.2
476.8	415.6
477.0	426.3
477.2	435.1
477.4	443.5
477.6	453.1
477.8	464.6
478.0	475.2
478.2	486.8
478.4	499.0
478.6	510.1
478.8	519.1
479.0	527.1
479.2	536.4
479.4	547.3
479.6	559.2
479.8	573.9
480.0	587.8
480.2	600.0
480.4	613.0
480.6	627.0
480.8	637.8
481.0	651.3
481.2	666.5
481.4	678.6
481.6	694.3
481.8	710.3
482.0	723.0
482.2	735.9
482.4	750.7
482.6	763.4
482.8	779.7
483.0	796.6
483.2	810.3
483.4	823.2
483.6	840.2
483.8	854.9
484.0	872.2
484.2	889.3
484.4	901.6
484.6	915.7
484.8	933.6
485.0	952.2
485.2	973.6
485.4	994.3
485.6	1012
485.8	1029
486.0	1048
486.2	1068
486.4	1085
486.6	1105
486.8	1124
487.0	1142
487.2	1163
487.4	1183
487.6	1203
487.8	1225
488.0	1246
488.2	1269
488.4	1294
488.6	1320
488.8	1342
489.0	1362
489.2	1382
489.4	1402
489.6	1426
489.8	1455
490.0	1476
490.2	1502
490.4	1528
490.6	1555
490.8	1579
491.0	1607
491.2	1632
491.4	1661
491.6	1691
491.8	1722
492.0	1752
492.2	1774
492.4	1797
492.6	1820
492.8	1851
493.0	1887
493.2	1927
493.4	1961
493.6	1992
493.8	2018
494.0	2045
494.2	2070
494.4	2103
494.6	2140
494.8	2176
495.0	2206
495.2	2240
495.4	2272
495.6	2307
495.8	2346
496.0	2381
496.2	2418
496.4	2453
496.6	2489
496.8	2527
497.0	2568
497.2	2607
497.4	2643
497.6	2676
497.8	2708
498.0	2751
498.2	2794
498.4	2835
498.6	2869
498.8	2911
499.0	2944
499.2	2988
499.4	3037
499.6	3082
499.8	3127
500.0	3177
500.2	3219
500.4	3263
500.6	3311
500.8	3352
501.0	3395
501.2	3443
501.4	3490
501.6	3531
501.8	3573
502.0	3612
502.2	3653
502.4	3696
502.6	3748
502.8	3798
503.0	3856
503.2	3903
503.4	3946
503.6	3983
503.8	4034
504.0	4083
504.2	4142
504.4	4190
504.6	4234
504.8	4280
505.0	4330
505.2	4378
505.4	4434
505.6	4491
505.8	4536
506.0	4590
506.2	4635
506.4	4681
506.6	4727
506.8	4772
507.0	4817
507.2	4866
507.4	4922
507.6	4979
507.8	5039
508.0	5097
508.2	5144
508.4	5184
508.6	5235
508.8	5286
509.0	5344
509.2	5400
509.4	5453
509.6	5503
509.8	5552
510.0	5595
510.2	5642
510.4	5680
510.6	5724
510.8	5778
511.0	5838
511.2	5893
511.4	5947
511.6	5988
511.8	6026
512.0	6076
512.2	6129
512.4	6186
512.6	6233
512.8	6282
513.0	6338
513.2	6388
513.4	6438
513.6	6489
513.8	6533
514.0	6582
514.2	6632
514.4	6674
514.6	6716
514.8	6756
515.0	6805
515.2	6863
515.4	6929
515.6	6977
515.8	7020
516.0	7065
516.2	7121
516.4	7172
516.6	7221
516.8	7250
517.0	7294
517.2	7333
517.4	7380
517.6	7419
517.8	7452
518.0	7482
518.2	7526
518.4	7574
518.6	7625
518.8	7685
519.0	7732
519.2	7764
519.4	7789
519.6	7824
519.8	7866
520.0	7921
520.2	7968
520.4	8015
520.6	8053
520.8	8089
521.0	8124
521.2	8154
521.4	8197
521.6	8250
521.8	8282
522.0	8322
522.2	8351
522.4	8377
522.6	8414
522.8	8452
523.0	8474
523.2	8507
523.4	8541
523.6	8556
523.8	8585
524.0	8619
524.2	8657
524.4	8698
524.6	8740
524.8	8760
525.0	8784
525.2	8810
525.4	8843
525.6	8870
525.8	8898
526.0	8933
526.2	8963
526.4	8997
526.6	9034
526.8	9057
527.0	9083
527.2	9108
527.4	9131
527.6	9148
527.8	9167
528.0	9184
528.2	9216
528.4	9231
528.6	9246
528.8	9259
529.0	9274
529.2	9293
529.4	9337
529.6	9363
529.8	9374
530.0	9380
530.2	9389
530.4	9410
530.6	9449
530.8	9475
531.0	9489
531.2	9503
531.4	9529
531.6	9556
531.8	9575
532.0	9599
532.2	9617
532.4	9631
532.6	9649
532.8	9650
533.0	9648
533.2	9663
533.4	9672
533.6	9672
533.8	9683
534.0	9694
534.2	9711
534.4	9750
534.6	9773
534.8	9779
535.0	9782
535.2	9777
535.4	9778
535.6	9787
535.8	9784
536.0	9786
536.2	9794
536.4	9804
536.6	9824
536.8	9831
537.0	9837
537.2	9839
537.4	9855
537.6	9871
537.8	9885
538.0	9892
538.2	9889
538.4	9883
538.6	9887
538.8	9881
539.0	9888
539.2	9891
539.4	9883
539.6	9887
539.8	9878
540.0	9886
540.2	9905
540.4	9915
540.6	9914
540.8	9909
541.0	9892
541.2	9884
541.4	9884
541.6	9878
541.8	9870
542.0	9880
542.2	9883
542.4	9879
542.6	9882
542.8	9887
543.0	9890
543.2	9893
543.4	9883
543.6	9861
543.8	9847
544.0	9843
544.2	9839
544.4	9840
544.6	9836
544.8	9828
545.0	9823
545.2	9809
545.4	9797
545.6	9795
545.8	9788
546.0	9792
546.2	9782
546.4	9769
546.6	9764
546.8	9753
547.0	9739
547.2	9746
547.4	9739
547.6	9738
547.8	9725
548.0	9705
548.2	9680
548.4	9683
548.6	9680
548.8	9678
549.0	9670
549.2	9660
549.4	9641
549.6	9636
549.8	9612
550.0	9595
550.2	9586
550.4	9581
550.6	9563
550.8	9550
551.0	9533
551.2	9517
551.4	9505
551.6	9501
551.8	9488
552.0	9470
552.2	9450
552.4	9424
552.6	9416
552.8	9408
553.0	9409
553.2	9401
553.4	9385
553.6	9373
553.8	9371
554.0	9356
554.2	9340
554.4	9314
554.6	9289
554.8	9270
555.0	9251
555.2	9234
555.4	9232
555.6	9208
555.8	9181
556.0	9157
556.2	9142
556.4	9136
556.6	9136
556.8	9119
557.0	9102
557.2	9080
557.4	9070
557.6	9054
557.8	9029
558.0	9018
558.2	8997
558.4	8966
558.6	8941
558.8	8930
559.0	8920
559.2	8922
559.4	8903
559.6	8864
559.8	8833
560.0	8808
560.2	8785
560.4	8777
560.6	8764
560.8	8742
561.0	8725
561.2	8700
561.4	8688
561.6	8675
561.8	8660
562.0	8634
562.2	8600
562.4	8576
562.6	8562
562.8	8548
563.0	8537
563.2	8508
563.4	8482
563.6	8472
563.8	8459
564.0	8435
564.2	8406
564.4	8386
564.6	8368
564.8	8355
565.0	8331
565.2	8294
565.4	8262
565.6	8267
565.8	8264
566.0	8256
566.2	8232
566.4	8200
566.6	8169
566.8	8152
567.0	8135
567.2	8120
567.4	8098
567.6	8065
567.8	8034
568.0	8005
568.2	7979
568.4	7955
568.6	7935
568.8	7904
569.0	7878
569.2	7857
569.4	7835
569.6	7816
569.8	7799
570.0	7779
570.2	7749
570.4	7730
570.6	7709
570.8	7697
571.0	7679
571.2	7660
571.4	7626
571.6	7611
571.8	7580
572.0	7560
572.2	7521
572.4	7492
572.6	7461
572.8	7448
573.0	7427
573.2	7412
573.4	7385
573.6	7363
573.8	7344
574.0	7319
574.2	7293
574.4	7263
574.6	7241
574.8	7223
575.0	7211
575.2	7188
575.4	7169
575.6	7147
575.8	7126
576.0	7100
576.2	7079
576.4	7053
576.6	7023
576.8	6997
577.0	6970
577.2	6943
577.4	6920
577.6	6896
577.8	6865
578.0	6835
578.2	6818
578.4	6800
578.6	6781
578.8	6761
579.0	6737
579.2	6709
579.4	6691
579.6	6668
579.8	6643
580.0	6621
580.2	6593
580.4	6565
580.6	6543
580.8	6524
581.0	6501
581.2	6493
581.4	6468
581.6	6442
581.8	6418
582.0	6399
582.2	6370
582.4	6348
582.6	6327
582.8	6307
583.0	6286
583.2	6266
583.4	6240
583.6	6213
583.8	6192
584.0	6168
584.2	6143
584.4	6121
584.6	6100
584.8	6073
585.0	6053
585.2	6026
585.4	5997
585.6	5975
585.8	5951
586.0	5926
586.2	5917
586.4	5900
586.6	5883
586.8	5862
587.0	5837
587.2	5807
587.4	5781
587.6	5759
587.8	5733
588.0	5713
588.2	5694
588.4	5678
588.6	5659
588.8	5640
589.0	5611
589.2	5587
589.4	5559
589.6	5542
589.8	5519
590.0	5493
590.2	5466
590.4	5440
590.6	5427
590.8	5411
591.0	5392
591.2	5370
591.4	5343
591.6	5316
591.8	5303
592.0	5277
592.2	5254
592.4	5233
592.6	5208
592.8	5186
593.0	5169
593.2	5154
593.4	5124
593.6	5111
593.8	5096
594.0	5082
594.2	5064
594.4	5050
594.6	5014
594.8	5004
595.0	4990
595.2	4965
595.4	4930
595.6	4900
595.8	4867
596.0	4851
596.2	4841
596.4	4827
596.6	4809
596.8	4785
597.0	4754
597.2	4726
597.4	4706
597.6	4697
597.8	4687
598.0	4676
598.2	4655
598.4	4632
598.6	4603
598.8	4579
599.0	4556
599.2	4547
599.4	4528
599.6	4510
599.8	4483
600.0	4454
600.2	4431
600.4	4413
600.6	4387
600.8	4374
601.0	4366
601.2	4353
601.4	4338
601.6	4319
601.8	4292
602.0	4271
602.2	4248
602.4	4227
602.6	4200
602.8	4187
603.0	4172
603.2	4158
603.4	4140
603.6	4121
603.8	4091
604.0	4072
604.2	4051
604.4	4031
604.6	4015
604.8	3995
605.0	3976
605.2	3960
605.4	3943
605.6	3929
605.8	3907
606.0	3887
606.2	3870
606.4	3856
606.6	3837
606.8	3823
607.0	3799
607.2	3782
607.4	3765
607.6	3750
607.8	3732
608.0	3714
608.2	3692
608.4	3677
608.6	3661
608.8	3640
609.0	3623
609.2	3605
609.4	3584
609.6	3568
609.8	3547
610.0	3533
610.2	3522
610.4	3510
610.6	3493
610.8	3478
611.0	3452
611.2	3434
611.4	3410
611.6	3393
611.8	3380
612.0	3375
612.2	3356
612.4	3335
612.6	3312
612.8	3289
613.0	3271
613.2	3258
613.4	3244
613.6	3233
613.8	3219
614.0	3197
614.2	3182
614.4	3166
614.6	3149
614.8	3136
615.0	3116
615.2	3101
615.4	3082
615.6	3065
615.8	3043
616.0	3028
616.2	3013
616.4	3001
616.6	2985
616.8	2968
617.0	2949
617.2	2929
617.4	2910
617.6	2894
617.8	2885
618.0	2875
618.2	2856
618.4	2833
618.6	2809
618.8	2789
619.0	2775
619.2	2770
619.4	2761
619.6	2749
619.8	2732
620.0	2715
620.2	2702
620.4	2686
620.6	2680
620.8	2666
621.0	2650
621.2	2635
621.4	2624
621.6	2604
621.8	2589
622.0	2574
622.2	2557
622.4	2539
622.6	2524
622.8	2514
623.0	2498
623.2	2491
623.4	2481
623.6	2463
623.8	2448
624.0	2439
624.2	2422
624.4	2411
624.6	2398
624.8	2381
625.0	2367
625.2	2352
625.4	2335
625.6	2324
625.8	2313
626.0	2302
626.2	2288
626.4	2270
626.6	2252
626.8	2240
627.0	2228
627.2	2220
627.4	2209
627.6	2199
627.8	2184
628.0	2168
628.2	2149
628.4	2135
628.6	2123
628.8	2114
629.0	2103
629.2	2097
629.4	2081
629.6	2068
629.8	2057
630.0	2042
630.2	2028
630.4	2021
630.6	2005
630.8	1994
631.0	1983
631.2	1962
631.4	1948
631.6	1938
631.8	1928
632.0	1922
632.2	1919
632.4	1904
632.6	1896
632.8	1889
633.0	1872
633.2	1855
633.4	1841
633.6	1827
633.8	1822
634.0	1819
634.2	1805
634.4	1789
634.6	1774
634.8	1760
635.0	1750
635.2	1739
635.4	1728
635.6	1718
635.8	1715
636.0	1707
636.2	1697
636.4	1684
636.6	1669
636.8	1659
637.0	1656
637.2	1646
637.4	1633
637.6	1624
637.8	1615
638.0	1608
638.2	1599
638.4	1585
638.6	1569
638.8	1561
639.0	1550
639.2	1543
639.4	1535
639.6	1527
639.8	1519
640.0	1510
640.2	1494
640.4	1485
640.6	1475
640.8	1466
641.0	1461
641.2	1457
641.4	1449
641.6	1441
641.8	1433
642.0	1421
642.2	1409
642.4	1401
642.6	1392
642.8	1384
643.0	1378
643.2	1372
643.4	1362
643.6	1353
643.8	1343
644.0	1332
644.2	1325
644.4	1316
644.6	1306
644.8	1297
645.0	1288
645.2	1279
645.4	1270
645.6	1265
645.8	1257
646.0	1248
646.2	1240
646.4	1226
646.6	1215
646.8	1210
647.0	1203
647.2	1199
647.4	1199
647.6	1193
647.8	1185
648.0	1176
648.2	1166
648.4	1157
648.6	1149
648.8	1145
649.0	1138
649.2	1132
649.4	1126
649.6	1115
649.8	1103
650.0	1097
650.2	1090
650.4	1087
650.6	1084
650.8	1080
651.0	1074
651.2	1066
651.4	1059
651.6	1052
651.8	1042
652.0	1036
652.2	1029
652.4	1024
652.6	1013
652.8	1002
653.0	993.6
653.2	988.8
653.4	984.0
653.6	983.0
653.8	977.0
654.0	970.5
654.2	967.0
654.4	958.7
654.6	950.5
654.8	939.4
655.0	930.7
655.2	924.6
655.4	919.5
655.6	911.7
655.8	907.5
656.0	904.6
656.2	902.2
656.4	897.9
656.6	892.7
656.8	884.4
657.0	875.4
657.2	871.7
657.4	866.4
657.6	860.2
657.8	855.8
658.0	851.4
658.2	844.3
658.4	838.5
658.6	831.0
658.8	823.3
659.0	818.2
659.2	817.1
659.4	812.0
659.6	805.1
659.8	797.5
660.0	790.3
660.2	788.2
660.4	786.7
660.6	781.0
660.8	775.1
661.0	769.1
661.2	764.3
661.4	759.7
661.6	752.7
661.8	748.7
662.0	741.3
662.2	735.1
662.4	729.7
662.6	724.8
662.8	722.6
663.0	723.1
663.2	714.9
663.4	708.4
663.6	699.8
663.8	694.9
664.0	691.1
664.2	686.5
664.4	679.6
664.6	676.7
664.8	672.0
665.0	669.8
665.2	663.7
665.4	656.2
665.6	651.8
665.8	648.9
666.0	646.1
666.2	644.3
666.4	640.5
666.6	636.2
666.8	631.6
667.0	625.8
667.2	619.9
667.4	614.2
667.6	611.2
667.8	608.7
668.0	602.2
668.2	598.1
668.4	596.2
668.6	595.4
668.8	594.4
669.0	588.1
669.2	581.5
669.4	575.2
669.6	572.8
669.8	569.7
670.0	566.1
670.2	560.6
670.4	557.4
670.6	554.1
670.8	551.2
671.0	547.1
671.2	543.8
671.4	540.3
671.6	535.9
671.8	531.2
672.0	527.0
672.2	523.5
672.4	519.6
672.6	515.7
672.8	512.3
673.0	507.7
673.2	504.6
673.4	502.9
673.6	500.8
673.8	497.7
674.0	495.2
674.2	490.4
674.4	483.9
674.6	479.3
674.8	476.0
675.0	474.0
675.2	472.3
675.4	470.9
675.6	466.4
675.8	461.5
676.0	459.5
676.2	458.4
676.4	455.1
676.6	452.1
676.8	445.3
677.0	439.1
677.2	436.1
677.4	433.4
677.6	432.1
677.8	429.0
678.0	425.2
678.2	422.7
678.4	421.6
678.6	419.6
678.8	419.0
679.0	417.1
679.2	414.7
679.4	410.6
679.6	406.9
679.8	399.7
680.0	394.5
680.2	391.0
680.4	389.9
680.6	388.4
680.8	386.8
681.0	384.1
681.2	382.6
681.4	379.7
681.6	377.3
681.8	372.7
682.0	368.9
682.2	366.2
682.4	364.6
682.6	362.7
682.8	360.1
683.0	356.8
683.2	353.7
683.4	353.3
683.6	352.3
683.8	349.3
684.0	345.6
684.2	342.6
684.4	339.0
684.6	338.6
684.8	336.3
685.0	333.3
685.2	328.8
685.4	325.7
685.6	324.4
685.8	323.6
686.0	320.8
686.2	318.2
686.4	313.4
686.6	311.5
686.8	310.9
687.0	308.2
687.2	306.3
687.4	303.9
687.6	301.7
687.8	301.8
688.0	300.8
688.2	296.4
688.4	294.8
688.6	292.8
688.8	290.6
689.0	288.2
689.2	286.2
689.4	284.2
689.6	282.3
689.8	281.8
690.0	280.3
690.2	277.9
690.4	276.1
690.6	274.8
690.8	272.4
691.0	272.1
691.2	270.9
691.4	269.0
691.6	267.3
691.8	264.6
692.0	262.1
692.2	259.3
692.4	256.2
692.6	252.2
692.8	252.0
693.0	250.7
693.2	250.9
693.4	249.8
693.6	249.8
693.8	248.0
694.0	246.9
694.2	243.6
694.4	240.5
694.6	237.8
694.8	236.6
695.0	235.3
695.2	233.5
695.4	231.7
695.6	230.1
695.8	229.0
696.0	226.5
696.2	225.4
696.4	223.6
696.6	221.5
696.8	221.5
697.0	221.1
697.2	219.3
697.4	218.4
697.6	215.3
697.8	213.0
698.0	212.7
698.2	213.7
698.4	212.9
698.6	212.1
698.8	210.0
699.0	208.5
699.2	207.1
699.4	207.7
699.6	205.9
699.8	203.6
700.0	201.3
700.2	199.2
700.4	198.1
700.6	198.3
700.8	197.9
701.0	195.6
701.2	192.7
701.4	191.0
701.6	190.7
701.8	190.3
702.0	190.8
702.2	190.1
702.4	188.8
702.6	187.3
702.8	185.3
703.0	182.7
703.2	182.2
703.4	183.1
703.6	183.2
703.8	182.1
704.0	179.5
704.2	176.4
704.4	173.9
704.6	172.6
704.8	171.9
705.0	171.5
705.2	170.6
705.4	169.1
705.6	168.4
705.8	167.0
706.0	166.8
706.2	167.1
706.4	166.9
706.6	165.9
706.8	165.0
707.0	161.6
707.2	159.9
707.4	159.0
707.6	159.4
707.8	158.3
708.0	157.2
708.2	154.7
708.4	153.5
708.6	152.2
708.8	152.5
709.0	151.6
709.2	150.8
709.4	148.9
709.6	146.7
709.8	145.2
710.0	146.2
710.2	146.0
710.4	145.5
710.6	144.1
710.8	142.3
711.0	140.8
711.2	140.9
711.4	138.7
711.6	138.8
711.8	139.2
712.0	138.5
712.2	137.6
712.4	136.1
712.6	134.5
712.8	134.4
713.0	133.5
713.2	132.9
713.4	132.1
713.6	131.0
713.8	130.9
714.0	130.2
714.2	128.9
714.4	129.0
714.6	127.8
714.8	126.6
715.0	126.3
715.2	125.6
715.4	124.1
715.6	123.2
715.8	121.0
716.0	120.3
716.2	121.3
716.4	121.4
716.6	122.0
716.8	121.4
717.0	119.3
717.2	117.4
717.4	116.7
717.6	115.9
717.8	115.6
718.0	114.1
718.2	112.7
718.4	109.8
718.6	109.1
718.8	108.8
719.0	107.9
719.2	107.4
719.4	107.3
719.6	106.4
719.8	106.8
720.0	106.1
720.2	105.0
720.4	103.7
720.6	102.5
720.8	101.8
721.0	101.3
721.2	100.1
721.4	99.94
721.6	99.92
721.8	99.66
722.0	99.68
722.2	98.92
722.4	97.00
722.6	95.93
722.8	94.14
723.0	92.97
723.2	92.86
723.4	92.56
723.6	92.20
723.8	91.97
724.0	90.39
724.2	90.06
724.4	89.40
724.6	89.01
724.8	88.28
725.0	87.66
725.2	86.90
725.4	86.30
725.6	85.96
725.8	85.60
726.0	84.34
726.2	83.70
726.4	82.25
726.6	79.64
726.8	79.30
727.0	79.13
727.2	80.05
727.4	80.97
727.6	80.39
727.8	78.37
728.0	77.13
728.2	76.10
728.4	75.76
728.6	75.55
728.8	75.79
729.0	76.55
729.2	77.32
729.4	77.52
729.6	77.68
729.8	76.52
730.0	74.84
730.2	72.88
730.4	70.09
730.6	68.52
730.8	69.25
731.0	69.96
731.2	71.07
731.4	71.92
731.6	70.85
731.8	69.91
732.0	68.93
732.2	67.52
732.4	66.79
732.6	66.18
732.8	65.08
733.0	64.54
733.2	64.52
733.4	64.19
733.6	64.21
733.8	64.39
734.0	64.11
734.2	63.21
734.4	62.36
734.6	61.89
734.8	60.85
735.0	61.25
735.2	60.58
735.4	58.74
735.6	57.44
735.8	56.92
736.0	56.38
736.2	57.17
736.4	57.48
736.6	57.88
736.8	57.36
737.0	56.18
737.2	55.90
737.4	55.33
737.6	54.83
737.8	55.36
738.0	54.87
738.2	54.68
738.4	54.57
738.6	54.06
738.8	52.89
739.0	52.53
739.2	52.25
739.4	52.73
739.6	52.47
739.8	52.89
740.0	52.51
740.2	51.32
740.4	49.91
740.6	48.67
740.8	47.73
741.0	48.34
741.2	48.97
741.4	49.15
741.6	48.75
741.8	48.37
742.0	48.19
742.2	47.50
742.4	46.53
742.6	45.91
742.8	45.19
743.0	45.31
743.2	45.51
743.4	45.18
743.6	44.56
743.8	44.26
744.0	43.72
744.2	43.74
744.4	43.38
744.6	43.19
744.8	42.89
745.0	42.69
745.2	41.92
745.4	41.86
745.6	41.21
745.8	40.92
746.0	40.70
746.2	40.20
746.4	39.14
746.6	38.39
746.8	38.52
747.0	38.98
747.2	39.20
747.4	39.52
747.6	39.12
747.8	37.75
748.0	37.65
748.2	37.57
748.4	37.37
748.6	37.78
748.8	37.52
749.0	36.73
749.2	36.14
749.4	36.15
749.6	35.88
749.8	36.58
750.0	36.34
750.2	35.99
750.4	35.33
750.6	34.96
750.8	34.79
751.0	35.22
751.2	35.54
751.4	35.27
751.6	34.70
751.8	33.61
752.0	33.03
752.2	32.55
752.4	32.81
752.6	32.36
752.8	31.78
753.0	31.39
753.2	31.08
753.4	31.19
753.6	31.93
753.8	32.67
754.0	32.60
754.2	31.99
754.4	31.08
754.6	30.08
754.8	29.98
755.0	30.47
755.2	30.44
755.4	30.24
755.6	29.84
755.8	29.59
756.0	29.78
756.2	29.96
756.4	29.65
756.6	29.79
756.8	29.11
757.0	28.93
757.2	28.32
757.4	27.79
757.6	27.58
757.8	28.31
758.0	28.33
758.2	28.35
758.4	27.33
758.6	26.83
758.8	26.29
759.0	26.36
759.2	26.48
759.4	26.51
759.6	26.09
759.8	26.14
760.0	25.95
760.2	25.79
760.4	25.59
760.6	24.83
760.8	24.39
761.0	24.78
761.2	25.36
761.4	25.37
761.6	24.75
761.8	24.10
762.0	23.91
762.2	24.14
762.4	24.44
762.6	24.10
762.8	23.15
763.0	22.85
763.2	22.40
763.4	22.37
763.6	22.31
763.8	22.09
764.0	21.97
764.2	21.97
764.4	22.04
764.6	22.08
764.8	21.68
765.0	21.63
765.2	21.65
765.4	21.52
765.6	21.91
765.8	21.35
766.0	20.77
766.2	20.72
766.4	20.74
766.6	20.20
766.8	20.64
767.0	20.59
767.2	20.43
767.4	20.45
767.6	20.08
767.8	19.42
768.0	19.50
768.2	19.54
768.4	19.38
768.6	19.30
768.8	19.03
769.0	19.14
769.2	18.84
769.4	18.40
769.6	18.25
769.8	18.37
770.0	18.73
770.2	19.16
770.4	19.06
770.6	18.74
770.8	18.23
771.0	18.41
771.2	18.59
771.4	18.47
771.6	18.35
771.8	17.87
772.0	17.18
772.2	17.30
772.4	17.08
772.6	17.21
772.8	17.51
773.0	17.76
773.2	17.85
773.4	17.83
773.6	17.28
773.8	16.81
774.0	16.55
774.2	16.77
774.4	17.09
774.6	17.37
774.8	17.32
775.0	16.56
775.2	15.67
775.4	15.27
775.6	15.37
775.8	15.65
776.0	16.23
776.2	15.97
776.4	16.07
776.6	15.90
776.8	15.96
777.0	15.82
777.2	15.88
777.4	15.44
777.6	15.56
777.8	15.42
778.0	15.09
778.2	15.00
778.4	14.70
778.6	14.70
778.8	14.50
779.0	14.57
779.2	14.41
779.4	14.64
779.6	14.33
779.8	14.33
780.0	14.35
780.2	14.55
780.4	14.55
780.6	14.51
780.8	14.13
781.0	13.67
781.2	13.59
781.4	13.78
781.6	14.08
781.8	14.69
782.0	14.58
782.2	14.12
782.4	13.78
782.6	13.90
782.8	13.82
783.0	14.18
783.2	13.68
783.4	13.01
783.6	12.87
783.8	13.30
784.0	13.34
784.2	14.13
784.4	13.92
784.6	13.48
784.8	13.59
785.0	14.06
785.2	14.20
785.4	14.76
785.6	14.19
785.8	13.39
786.0	13.25
786.2	13.39
786.4	13.77
786.6	14.08
786.8	13.87
787.0	13.33
787.2	13.09
787.4	13.11
787.6	13.55
787.8	13.62
788.0	14.01
788.2	13.75
788.4	13.80
788.6	14.33
788.8	14.33
789.0	14.08
789.2	14.25
789.4	13.70
789.6	13.51
789.8	13.60
790.0	13.47
790.2	13.96
790.4	14.51
790.6	14.57
790.8	14.40
791.0	14.24
791.2	14.08
791.4	14.69
791.6	14.69
791.8	14.39
792.0	13.97
792.2	13.80
792.4	13.75
792.6	14.53
792.8	14.93
793.0	14.96
793.2	14.71
793.4	14.36
793.6	14.10
793.8	14.70
794.0	15.03
794.2	14.84
794.4	14.70
794.6	14.52
794.8	14.45
795.0	14.87
795.2	14.97
795.4	14.88
795.6	14.74
795.8	14.61
796.0	14.52
796.2	14.54
796.4	14.73
796.6	15.21
796.8	15.21
797.0	15.19
797.2	15.03
797.4	14.65
797.6	14.37
797.8	14.54
798.0	14.36
798.2	14.77
798.4	15.03
798.6	15.09
798.8	14.88
799.0	15.09
799.2	14.84
799.4	15.43
799.6	15.55
799.8	15.56
800.0	15.11
800.2	15.23
800.4	14.90
800.6	15.10
800.8	15.09
801.0	15.06
801.2	15.00
801.4	15.65
801.6	15.83
801.8	15.71
802.0	15.37
802.2	14.79
802.4	14.65
802.6	14.72
802.8	15.10
803.0	15.07
803.2	14.83
803.4	14.34
803.6	14.24
803.8	14.11
804.0	14.24
804.2	14.40
804.4	14.62
804.6	14.58
804.8	14.50
805.0	14.50
805.2	14.00
805.4	14.19
805.6	14.60
805.8	14.03
806.0	13.88
806.2	13.87
806.4	13.74
806.6	13.97
806.8	13.96
807.0	13.47
807.2	13.61
807.4	13.81
807.6	14.25
807.8	14.17
808.0	14.05
808.2	13.88
808.4	13.55
808.6	13.38
808.8	13.69
809.0	13.48
809.2	13.20
809.4	12.94
809.6	12.48
809.8	12.35
810.0	12.55
810.2	12.91
810.4	13.19
810.6	13.46
810.8	13.25
811.0	12.89
811.2	12.55
811.4	12.26
811.6	12.25
811.8	12.29
812.0	12.64
812.2	12.30
812.4	12.20
812.6	12.06
812.8	11.99
813.0	11.98
813.2	11.90
813.4	11.33
813.6	11.14
813.8	11.27
814.0	11.23
814.2	11.22
814.4	10.78
814.6	10.62
814.8	10.59
815.0	10.68
815.2	10.88
815.4	11.19
815.6	11.24
815.8	10.99
816.0	11.09
816.2	11.10
816.4	11.03
816.6	10.84
816.8	10.28
817.0	9.690
817.2	9.840
817.4	10.11
817.6	10.39
817.8	10.50
818.0	10.26
818.2	9.907
818.4	9.653
818.6	9.500
818.8	9.525
819.0	9.758
819.2	9.886
819.4	9.807
819.6	9.771
819.8	9.453
820.0	9.172
820.2	8.934
820.4	8.679
820.6	8.811
820.8	8.855
821.0	8.778
821.2	8.704
821.4	8.381
821.6	8.409
821.8	8.735
822.0	8.842
822.2	8.450
822.4	8.280
822.6	8.058
822.8	8.184
823.0	8.534
823.2	8.791
823.4	8.526
823.6	8.542
823.8	8.373
824.0	8.207
824.2	7.988
824.4	7.448
824.6	7.434
824.8	7.577
825.0	7.695
825.2	8.032
825.4	8.098
825.6	7.747
825.8	7.556
826.0	7.128
826.2	6.889
826.4	6.857
826.6	6.942
826.8	6.979
827.0	7.044
827.2	6.879
827.4	6.943
827.6	7.010
827.8	7.162
828.0	7.055
828.2	7.008
828.4	6.834
828.6	6.802
828.8	6.840
829.0	7.004
829.2	6.956
829.4	6.604
829.6	6.390
829.8	6.358
830.0	6.470
830.2	6.715
830.4	6.878
830.6	6.463
830.8	5.990
831.0	5.878
831.2	5.968
831.4	6.279
831.6	6.521
831.8	6.442
832.0	6.121
832.2	6.014
832.4	5.955
832.6	6.103
832.8	6.152
833.0	6.296
833.2	6.244
833.4	6.134
833.6	5.709
833.8	5.755
834.0	5.683
834.2	5.856
834.4	5.819
834.6	5.465
834.8	5.109
835.0	5.461
835.2	5.719
835.4	6.112
835.6	5.922
835.8	5.543
836.0	5.407
836.2	5.412
836.4	5.406
836.6	5.537
836.8	5.564
837.0	5.561
837.2	5.680
837.4	5.578
837.6	5.621
837.8	5.505
838.0	5.443
838.2	5.452
838.4	5.292
838.6	4.925
838.8	5.250
839.0	5.108
839.2	5.201
839.4	5.463
839.6	5.252
839.8	5.069
840.0	5.139
840.2	4.881
840.4	4.974
840.6	5.146
840.8	5.147
841.0	5.406
841.2	5.413
841.4	5.095
841.6	4.940
841.8	4.805
842.0	4.525
842.2	4.379
842.4	4.457
842.6	4.728
842.8	4.850
843.0	5.136
843.2	5.008
843.4	4.779
843.6	4.722
843.8	4.809
844.0	4.562
844.2	4.693
844.4	4.693
844.6	4.762
844.8	4.751
845.0	4.735
845.2	4.544
845.4	4.467
845.6	4.659
845.8	4.862
846.0	4.869
846.2	4.915
846.4	4.959
846.6	4.738
846.8	4.671
847.0	4.490
847.2	4.232
847.4	3.953
847.6	3.952
847.8	3.964
848.0	4.120
848.2	4.384
848.4	4.526
848.6	4.391
848.8	4.147
849.0	4.301
849.2	4.164
849.4	4.548
849.6	4.737
849.8	4.728
850.0	4.397

