Sample:	'20211010A(EM)
File name:	g-ni-cds 1;5 600v.FDS
Run date:	'09:36:17, 03/22/2023
Operator:	Administrator
Comment:	'

Instrument
Model:	F-4700 FL Spectrophotometer
Serial number:	2019-001
ROM Version:	5J24010 00

Instrument parameters
Measurement type:	Wavelength scan
Scan mode:	Emission
Data mode:	Fluorescence
EX WL:	400.0 nm
EM  Start WL:	420.0 nm
EM  End WL:	850.0 nm
Scan speed:	1200 nm/min
Delay:	0.0 s
EX Slit:	10.0 nm
EM Slit:	10.0 nm
PMT Voltage:	600 V
Response:	0.002 s
Corrected spectra:	Off
Shutter control:	On

Processing performed
Savitsky-Golay smoothed
Smoothing order:	3
Number of points:	7
Number of times:	1

Peak integration
Integration method:	Rectangular
Sensitivity:	1
Threshold:	1.000

Peaks
No.	Start(nm)	Apex(nm)	End(nm)	Height(Data)	Valley(nm)	Valley(Data)
1	420.0	425.8	435.6	2.576	435.6	1.534
2	435.6	535.2	536.0	1942	536.0	1916
3	536.0	537.6	539.2	1942	539.2	1920
4	539.2	540.6	675.0	1947	675.0	91.26
5	675.0	675.8	702.2	93.38	702.2	44.44
6	702.2	703.8	714.6	47.00	714.6	33.31
7	714.6	715.8	727.4	35.41	727.4	23.19
8	727.4	728.0	730.0	25.02	730.0	22.26
9	730.0	731.2	733.6	24.24	733.6	19.26
10	733.6	734.4	738.4	21.46	738.4	16.68
11	738.4	739.4	742.8	18.43	742.8	15.02
12	742.8	745.0	746.4	16.31	746.4	12.86
13	746.4	747.2	747.8	14.39	747.8	13.32
14	747.8	749.6	750.2	14.36	750.2	12.13
15	750.2	750.8	758.4	13.51	758.4	9.775
16	758.4	759.2	763.6	11.19	763.6	8.864
17	763.6	765.6	771.2	9.906	771.2	6.881
18	771.2	773.4	785.0	8.111	785.0	5.275
19	785.0	788.8	793.0	6.751	793.0	4.928
20	793.0	799.0	816.8	6.680	816.8	4.005
21	816.8	818.0	850.0	5.042	850.0	2.575

Data points
nm	Data
420.0	1.442
420.2	1.710
420.4	1.864
420.6	1.925
420.8	1.832
421.0	1.933
421.2	2.040
421.4	2.115
421.6	1.988
421.8	2.006
422.0	1.599
422.2	1.731
422.4	1.717
422.6	1.834
422.8	1.912
423.0	1.996
423.2	1.838
423.4	2.042
423.6	1.946
423.8	1.802
424.0	1.637
424.2	1.515
424.4	1.591
424.6	1.726
424.8	1.806
425.0	1.837
425.2	1.969
425.4	2.257
425.6	2.552
425.8	2.576
426.0	2.415
426.2	2.230
426.4	1.942
426.6	1.993
426.8	2.062
427.0	2.111
427.2	2.148
427.4	2.175
427.6	1.860
427.8	1.979
428.0	2.056
428.2	1.951
428.4	1.964
428.6	1.771
428.8	1.537
429.0	1.770
429.2	2.052
429.4	2.130
429.6	2.238
429.8	1.915
430.0	1.802
430.2	1.888
430.4	1.945
430.6	1.960
430.8	2.069
431.0	1.906
431.2	2.041
431.4	1.987
431.6	1.884
431.8	1.884
432.0	1.893
432.2	1.924
432.4	2.050
432.6	2.057
432.8	2.033
433.0	2.034
433.2	2.060
433.4	2.135
433.6	2.084
433.8	2.000
434.0	1.886
434.2	1.872
434.4	2.043
434.6	2.171
434.8	2.253
435.0	2.079
435.2	1.871
435.4	1.649
435.6	1.534
435.8	1.870
436.0	2.214
436.2	2.324
436.4	2.331
436.6	2.283
436.8	2.048
437.0	2.209
437.2	1.965
437.4	1.990
437.6	2.010
437.8	2.383
438.0	2.368
438.2	2.308
438.4	2.022
438.6	2.001
438.8	1.883
439.0	2.002
439.2	2.074
439.4	2.162
439.6	2.155
439.8	2.118
440.0	2.005
440.2	1.838
440.4	1.818
440.6	1.764
440.8	1.934
441.0	2.096
441.2	2.140
441.4	2.188
441.6	2.052
441.8	1.979
442.0	1.828
442.2	1.891
442.4	1.928
442.6	1.995
442.8	1.902
443.0	1.948
443.2	1.811
443.4	1.978
443.6	2.034
443.8	2.090
444.0	2.342
444.2	2.432
444.4	2.478
444.6	2.382
444.8	2.216
445.0	2.145
445.2	2.274
445.4	2.161
445.6	1.782
445.8	1.875
446.0	1.915
446.2	2.062
446.4	2.174
446.6	2.265
446.8	1.949
447.0	1.986
447.2	1.846
447.4	1.830
447.6	1.797
447.8	2.052
448.0	2.163
448.2	2.136
448.4	2.081
448.6	2.029
448.8	1.775
449.0	2.009
449.2	2.107
449.4	2.178
449.6	2.307
449.8	2.283
450.0	2.240
450.2	2.315
450.4	1.962
450.6	2.168
450.8	2.543
451.0	2.656
451.2	2.753
451.4	2.507
451.6	2.019
451.8	2.166
452.0	2.428
452.2	2.653
452.4	2.689
452.6	2.506
452.8	2.267
453.0	2.230
453.2	2.358
453.4	2.496
453.6	2.582
453.8	2.668
454.0	2.714
454.2	2.637
454.4	2.687
454.6	2.558
454.8	2.430
455.0	2.369
455.2	2.456
455.4	2.468
455.6	2.436
455.8	2.299
456.0	2.089
456.2	1.969
456.4	2.073
456.6	2.151
456.8	2.359
457.0	2.641
457.2	2.566
457.4	2.545
457.6	2.574
457.8	2.629
458.0	2.696
458.2	2.630
458.4	2.321
458.6	2.183
458.8	2.319
459.0	2.536
459.2	2.646
459.4	2.453
459.6	2.234
459.8	2.241
460.0	2.265
460.2	2.389
460.4	2.631
460.6	2.644
460.8	2.606
461.0	2.979
461.2	2.868
461.4	2.807
461.6	2.810
461.8	2.905
462.0	3.144
462.2	3.536
462.4	3.384
462.6	3.121
462.8	2.864
463.0	2.694
463.2	2.978
463.4	3.357
463.6	3.682
463.8	4.081
464.0	4.103
464.2	3.717
464.4	3.446
464.6	3.332
464.8	3.190
465.0	3.452
465.2	3.464
465.4	3.270
465.6	3.378
465.8	3.909
466.0	4.253
466.2	4.527
466.4	4.606
466.6	4.339
466.8	4.384
467.0	4.650
467.2	4.956
467.4	5.158
467.6	5.147
467.8	5.047
468.0	5.175
468.2	4.883
468.4	5.277
468.6	5.673
468.8	5.914
469.0	6.285
469.2	6.771
469.4	6.483
469.6	6.675
469.8	6.635
470.0	6.589
470.2	7.101
470.4	7.759
470.6	7.793
470.8	7.813
471.0	7.775
471.2	7.554
471.4	7.680
471.6	8.307
471.8	8.702
472.0	9.233
472.2	9.795
472.4	10.30
472.6	10.29
472.8	10.58
473.0	10.63
473.2	10.50
473.4	10.48
473.6	10.85
473.8	11.26
474.0	11.61
474.2	11.96
474.4	12.06
474.6	12.46
474.8	13.36
475.0	14.51
475.2	14.91
475.4	15.00
475.6	14.47
475.8	14.83
476.0	15.54
476.2	16.43
476.4	17.11
476.6	17.81
476.8	18.45
477.0	20.16
477.2	21.01
477.4	21.02
477.6	21.20
477.8	21.24
478.0	22.47
478.2	24.09
478.4	24.91
478.6	24.93
478.8	25.55
479.0	26.37
479.2	28.08
479.4	28.72
479.6	28.63
479.8	29.44
480.0	30.47
480.2	32.52
480.4	33.93
480.6	35.06
480.8	35.70
481.0	37.14
481.2	38.13
481.4	39.44
481.6	40.84
481.8	42.48
482.0	43.61
482.2	43.89
482.4	44.95
482.6	45.39
482.8	47.79
483.0	50.22
483.2	51.95
483.4	52.98
483.6	55.23
483.8	57.11
484.0	58.23
484.2	59.22
484.4	60.73
484.6	63.27
484.8	65.83
485.0	68.20
485.2	69.94
485.4	71.66
485.6	75.18
485.8	79.31
486.0	80.90
486.2	82.49
486.4	84.48
486.6	85.62
486.8	88.41
487.0	91.62
487.2	95.01
487.4	100.2
487.6	104.5
487.8	106.9
488.0	107.2
488.2	108.2
488.4	111.1
488.6	116.0
488.8	120.8
489.0	125.6
489.2	126.2
489.4	129.7
489.6	132.3
489.8	136.0
490.0	140.8
490.2	145.8
490.4	148.4
490.6	152.8
490.8	156.1
491.0	160.2
491.2	164.6
491.4	167.6
491.6	171.1
491.8	175.0
492.0	181.3
492.2	188.2
492.4	194.2
492.6	198.7
492.8	202.3
493.0	206.3
493.2	215.1
493.4	224.2
493.6	230.7
493.8	235.1
494.0	237.8
494.2	242.1
494.4	249.2
494.6	256.1
494.8	261.0
495.0	265.9
495.2	272.1
495.4	279.9
495.6	287.6
495.8	294.6
496.0	303.8
496.2	310.2
496.4	316.6
496.6	322.4
496.8	330.4
497.0	337.5
497.2	346.4
497.4	355.2
497.6	361.3
497.8	369.0
498.0	376.2
498.2	384.0
498.4	389.5
498.6	399.5
498.8	405.3
499.0	414.1
499.2	420.0
499.4	431.1
499.6	439.0
499.8	450.3
500.0	457.7
500.2	467.2
500.4	475.8
500.6	487.7
500.8	498.9
501.0	508.1
501.2	518.8
501.4	528.5
501.6	535.7
501.8	543.8
502.0	553.3
502.2	562.1
502.4	575.2
502.6	589.7
502.8	599.4
503.0	605.1
503.2	609.0
503.4	619.4
503.6	631.4
503.8	648.1
504.0	656.9
504.2	664.1
504.4	671.1
504.6	684.2
504.8	701.9
505.0	715.1
505.2	726.1
505.4	738.0
505.6	749.6
505.8	760.8
506.0	771.6
506.2	778.5
506.4	791.7
506.6	802.1
506.8	814.3
507.0	826.8
507.2	834.9
507.4	841.8
507.6	853.4
507.8	867.1
508.0	876.9
508.2	893.7
508.4	901.5
508.6	911.3
508.8	924.5
509.0	937.5
509.2	951.6
509.4	966.8
509.6	972.0
509.8	983.5
510.0	997.1
510.2	1005
510.4	1020
510.6	1032
510.8	1042
511.0	1054
511.2	1066
511.4	1078
511.6	1093
511.8	1108
512.0	1120
512.2	1132
512.4	1135
512.6	1143
512.8	1154
513.0	1167
513.2	1181
513.4	1196
513.6	1203
513.8	1214
514.0	1227
514.2	1240
514.4	1253
514.6	1265
514.8	1275
515.0	1285
515.2	1297
515.4	1311
515.6	1319
515.8	1328
516.0	1340
516.2	1354
516.4	1360
516.6	1368
516.8	1369
517.0	1377
517.2	1389
517.4	1397
517.6	1409
517.8	1420
518.0	1429
518.2	1439
518.4	1452
518.6	1458
518.8	1472
519.0	1486
519.2	1493
519.4	1503
519.6	1519
519.8	1530
520.0	1536
520.2	1548
520.4	1547
520.6	1552
520.8	1562
521.0	1570
521.2	1579
521.4	1594
521.6	1600
521.8	1608
522.0	1615
522.2	1624
522.4	1633
522.6	1644
522.8	1650
523.0	1651
523.2	1656
523.4	1670
523.6	1677
523.8	1681
524.0	1682
524.2	1683
524.4	1696
524.6	1718
524.8	1734
525.0	1736
525.2	1743
525.4	1743
525.6	1746
525.8	1750
526.0	1760
526.2	1762
526.4	1770
526.6	1773
526.8	1772
527.0	1770
527.2	1783
527.4	1796
527.6	1804
527.8	1812
528.0	1812
528.2	1812
528.4	1815
528.6	1817
528.8	1818
529.0	1826
529.2	1837
529.4	1844
529.6	1847
529.8	1849
530.0	1856
530.2	1861
530.4	1865
530.6	1863
530.8	1863
531.0	1866
531.2	1876
531.4	1875
531.6	1875
531.8	1873
532.0	1875
532.2	1879
532.4	1890
532.6	1892
532.8	1898
533.0	1903
533.2	1905
533.4	1906
533.6	1912
533.8	1908
534.0	1908
534.2	1914
534.4	1916
534.6	1924
534.8	1934
535.0	1939
535.2	1942
535.4	1937
535.6	1929
535.8	1922
536.0	1916
536.2	1920
536.4	1922
536.6	1924
536.8	1932
537.0	1934
537.2	1931
537.4	1941
537.6	1942
537.8	1939
538.0	1931
538.2	1929
538.4	1921
538.6	1923
538.8	1927
539.0	1924
539.2	1920
539.4	1932
539.6	1937
539.8	1934
540.0	1939
540.2	1940
540.4	1938
540.6	1947
540.8	1945
541.0	1934
541.2	1935
541.4	1935
541.6	1930
541.8	1932
542.0	1925
542.2	1922
542.4	1922
542.6	1925
542.8	1926
543.0	1927
543.2	1920
543.4	1921
543.6	1917
543.8	1918
544.0	1914
544.2	1908
544.4	1902
544.6	1903
544.8	1911
545.0	1912
545.2	1908
545.4	1899
545.6	1889
545.8	1883
546.0	1886
546.2	1886
546.4	1891
546.6	1888
546.8	1886
547.0	1879
547.2	1878
547.4	1875
547.6	1876
547.8	1875
548.0	1874
548.2	1868
548.4	1872
548.6	1865
548.8	1863
549.0	1861
549.2	1850
549.4	1846
549.6	1847
549.8	1848
550.0	1846
550.2	1844
550.4	1833
550.6	1830
550.8	1834
551.0	1831
551.2	1824
551.4	1819
551.6	1809
551.8	1806
552.0	1811
552.2	1801
552.4	1801
552.6	1802
552.8	1796
553.0	1794
553.2	1788
553.4	1785
553.6	1787
553.8	1784
554.0	1777
554.2	1769
554.4	1759
554.6	1754
554.8	1753
555.0	1747
555.2	1748
555.4	1748
555.6	1750
555.8	1745
556.0	1739
556.2	1732
556.4	1732
556.6	1728
556.8	1728
557.0	1719
557.2	1714
557.4	1706
557.6	1703
557.8	1704
558.0	1702
558.2	1696
558.4	1691
558.6	1677
558.8	1673
559.0	1674
559.2	1671
559.4	1674
559.6	1668
559.8	1666
560.0	1664
560.2	1657
560.4	1654
560.6	1646
560.8	1634
561.0	1635
561.2	1636
561.4	1634
561.6	1632
561.8	1625
562.0	1613
562.2	1605
562.4	1599
562.6	1593
562.8	1590
563.0	1588
563.2	1580
563.4	1578
563.6	1574
563.8	1573
564.0	1574
564.2	1572
564.4	1566
564.6	1563
564.8	1553
565.0	1545
565.2	1540
565.4	1539
565.6	1542
565.8	1543
566.0	1536
566.2	1530
566.4	1523
566.6	1516
566.8	1517
567.0	1507
567.2	1497
567.4	1491
567.6	1478
567.8	1476
568.0	1481
568.2	1472
568.4	1467
568.6	1465
568.8	1453
569.0	1452
569.2	1454
569.4	1445
569.6	1443
569.8	1435
570.0	1432
570.2	1426
570.4	1423
570.6	1412
570.8	1413
571.0	1406
571.2	1407
571.4	1403
571.6	1396
571.8	1391
572.0	1389
572.2	1386
572.4	1379
572.6	1373
572.8	1365
573.0	1364
573.2	1357
573.4	1354
573.6	1349
573.8	1346
574.0	1344
574.2	1341
574.4	1332
574.6	1325
574.8	1319
575.0	1313
575.2	1307
575.4	1304
575.6	1301
575.8	1291
576.0	1286
576.2	1279
576.4	1271
576.6	1278
576.8	1279
577.0	1272
577.2	1266
577.4	1259
577.6	1251
577.8	1250
578.0	1248
578.2	1247
578.4	1243
578.6	1234
578.8	1228
579.0	1220
579.2	1216
579.4	1214
579.6	1210
579.8	1208
580.0	1208
580.2	1199
580.4	1193
580.6	1187
580.8	1180
581.0	1173
581.2	1165
581.4	1158
581.6	1156
581.8	1158
582.0	1155
582.2	1153
582.4	1143
582.6	1141
582.8	1138
583.0	1140
583.2	1136
583.4	1135
583.6	1125
583.8	1120
584.0	1113
584.2	1108
584.4	1105
584.6	1102
584.8	1100
585.0	1096
585.2	1083
585.4	1074
585.6	1067
585.8	1066
586.0	1068
586.2	1072
586.4	1071
586.6	1062
586.8	1051
587.0	1044
587.2	1037
587.4	1037
587.6	1038
587.8	1029
588.0	1023
588.2	1023
588.4	1019
588.6	1018
588.8	1017
589.0	1008
589.2	1002
589.4	998.3
589.6	989.8
589.8	984.6
590.0	980.7
590.2	979.1
590.4	978.5
590.6	972.0
590.8	965.2
591.0	959.5
591.2	953.5
591.4	955.5
591.6	952.3
591.8	948.8
592.0	945.4
592.2	936.4
592.4	933.5
592.6	929.9
592.8	927.8
593.0	923.6
593.2	918.7
593.4	911.3
593.6	912.5
593.8	909.1
594.0	903.6
594.2	894.0
594.4	892.0
594.6	888.8
594.8	885.1
595.0	881.2
595.2	874.3
595.4	873.3
595.6	869.6
595.8	864.6
596.0	857.4
596.2	854.6
596.4	853.8
596.6	855.9
596.8	848.7
597.0	844.9
597.2	839.0
597.4	836.6
597.6	832.9
597.8	828.9
598.0	822.3
598.2	820.3
598.4	817.1
598.6	814.9
598.8	811.3
599.0	807.9
599.2	803.3
599.4	797.9
599.6	792.4
599.8	789.5
600.0	785.8
600.2	782.1
600.4	778.7
600.6	775.0
600.8	772.1
601.0	773.3
601.2	773.4
601.4	769.6
601.6	763.1
601.8	757.4
602.0	750.3
602.2	746.2
602.4	741.0
602.6	739.9
602.8	736.8
603.0	734.7
603.2	731.3
603.4	728.0
603.6	722.6
603.8	722.4
604.0	715.9
604.2	709.4
604.4	706.5
604.6	701.5
604.8	700.3
605.0	702.5
605.2	698.2
605.4	696.0
605.6	693.4
605.8	683.0
606.0	675.3
606.2	671.7
606.4	667.5
606.6	669.3
606.8	669.5
607.0	666.5
607.2	662.7
607.4	661.9
607.6	656.6
607.8	652.8
608.0	649.9
608.2	644.3
608.4	641.2
608.6	638.6
608.8	632.8
609.0	632.0
609.2	631.9
609.4	627.6
609.6	624.8
609.8	621.3
610.0	617.8
610.2	618.0
610.4	616.6
610.6	609.4
610.8	604.2
611.0	600.1
611.2	597.5
611.4	595.7
611.6	593.1
611.8	588.3
612.0	585.4
612.2	581.5
612.4	579.8
612.6	579.0
612.8	576.9
613.0	576.8
613.2	574.1
613.4	571.7
613.6	566.5
613.8	561.3
614.0	555.4
614.2	551.6
614.4	550.9
614.6	549.9
614.8	546.3
615.0	543.2
615.2	540.6
615.4	539.5
615.6	538.4
615.8	533.8
616.0	528.5
616.2	524.4
616.4	523.9
616.6	522.5
616.8	518.0
617.0	515.9
617.2	513.1
617.4	507.2
617.6	504.6
617.8	500.3
618.0	499.3
618.2	501.9
618.4	500.9
618.6	496.6
618.8	491.6
619.0	487.8
619.2	487.4
619.4	485.3
619.6	482.2
619.8	479.6
620.0	474.4
620.2	472.6
620.4	469.8
620.6	464.7
620.8	462.5
621.0	462.7
621.2	460.9
621.4	460.6
621.6	458.9
621.8	453.5
622.0	452.6
622.2	448.6
622.4	444.9
622.6	442.0
622.8	441.9
623.0	438.9
623.2	437.2
623.4	433.5
623.6	433.6
623.8	430.7
624.0	429.4
624.2	425.7
624.4	419.7
624.6	415.0
624.8	414.4
625.0	409.6
625.2	403.6
625.4	402.6
625.6	399.1
625.8	398.9
626.0	402.4
626.2	402.1
626.4	397.0
626.6	392.7
626.8	387.4
627.0	386.7
627.2	386.2
627.4	384.9
627.6	386.3
627.8	382.9
628.0	382.2
628.2	379.4
628.4	374.4
628.6	373.6
628.8	372.9
629.0	370.0
629.2	367.8
629.4	365.9
629.6	362.0
629.8	360.8
630.0	359.4
630.2	357.4
630.4	357.5
630.6	355.8
630.8	353.8
631.0	349.2
631.2	345.1
631.4	339.6
631.6	336.9
631.8	333.4
632.0	337.2
632.2	338.7
632.4	336.7
632.6	335.2
632.8	331.9
633.0	327.6
633.2	328.8
633.4	327.0
633.6	325.5
633.8	323.6
634.0	320.7
634.2	316.1
634.4	314.0
634.6	311.3
634.8	308.0
635.0	304.8
635.2	304.9
635.4	302.4
635.6	302.2
635.8	303.5
636.0	299.9
636.2	299.6
636.4	299.1
636.6	294.9
636.8	295.0
637.0	293.2
637.2	290.8
637.4	290.4
637.6	288.3
637.8	287.4
638.0	285.4
638.2	283.7
638.4	282.1
638.6	279.5
638.8	280.3
639.0	283.1
639.2	278.5
639.4	273.8
639.6	270.0
639.8	266.7
640.0	266.9
640.2	270.3
640.4	269.8
640.6	265.0
640.8	262.5
641.0	259.8
641.2	258.4
641.4	256.7
641.6	257.5
641.8	255.0
642.0	253.3
642.2	251.6
642.4	250.9
642.6	249.0
642.8	246.5
643.0	243.7
643.2	243.5
643.4	241.0
643.6	240.9
643.8	241.0
644.0	236.0
644.2	232.4
644.4	232.8
644.6	232.2
644.8	233.5
645.0	232.7
645.2	230.3
645.4	227.3
645.6	225.0
645.8	223.5
646.0	222.4
646.2	220.4
646.4	221.2
646.6	220.5
646.8	218.9
647.0	219.2
647.2	217.0
647.4	214.7
647.6	212.0
647.8	208.8
648.0	206.7
648.2	205.1
648.4	201.2
648.6	199.5
648.8	200.1
649.0	202.5
649.2	205.2
649.4	205.1
649.6	204.0
649.8	200.0
650.0	197.7
650.2	195.6
650.4	193.3
650.6	191.7
650.8	193.9
651.0	193.7
651.2	193.9
651.4	193.1
651.6	192.4
651.8	190.2
652.0	188.0
652.2	186.3
652.4	183.9
652.6	181.6
652.8	182.9
653.0	182.9
653.2	180.8
653.4	180.8
653.6	179.2
653.8	178.4
654.0	179.0
654.2	178.0
654.4	174.6
654.6	173.1
654.8	171.6
655.0	171.5
655.2	171.8
655.4	167.9
655.6	165.0
655.8	164.1
656.0	162.4
656.2	160.9
656.4	162.4
656.6	160.3
656.8	160.9
657.0	163.0
657.2	162.3
657.4	159.2
657.6	156.7
657.8	153.5
658.0	151.9
658.2	153.0
658.4	151.9
658.6	151.7
658.8	150.9
659.0	150.6
659.2	151.1
659.4	149.1
659.6	145.8
659.8	145.0
660.0	143.4
660.2	143.4
660.4	144.0
660.6	142.6
660.8	141.4
661.0	141.2
661.2	139.4
661.4	137.7
661.6	137.0
661.8	137.5
662.0	137.8
662.2	138.0
662.4	137.0
662.6	135.9
662.8	135.6
663.0	134.5
663.2	134.6
663.4	132.8
663.6	129.9
663.8	128.1
664.0	127.8
664.2	127.5
664.4	130.1
664.6	130.5
664.8	129.0
665.0	126.6
665.2	124.3
665.4	122.5
665.6	123.9
665.8	124.9
666.0	124.4
666.2	122.9
666.4	122.3
666.6	120.9
666.8	119.9
667.0	119.0
667.2	117.8
667.4	115.4
667.6	114.4
667.8	114.7
668.0	114.3
668.2	114.7
668.4	115.3
668.6	114.7
668.8	112.2
669.0	112.8
669.2	113.0
669.4	112.0
669.6	111.6
669.8	112.0
670.0	110.0
670.2	109.2
670.4	109.3
670.6	108.0
670.8	106.8
671.0	106.1
671.2	104.6
671.4	102.6
671.6	102.6
671.8	102.4
672.0	101.9
672.2	102.0
672.4	101.9
672.6	101.4
672.8	101.8
673.0	100.7
673.2	101.4
673.4	101.1
673.6	100.0
673.8	97.70
674.0	95.63
674.2	93.61
674.4	92.76
674.6	93.04
674.8	92.07
675.0	91.26
675.2	91.36
675.4	91.67
675.6	91.90
675.8	93.38
676.0	92.64
676.2	93.19
676.4	91.84
676.6	89.41
676.8	88.37
677.0	87.48
677.2	86.84
677.4	86.69
677.6	86.50
677.8	86.21
678.0	85.63
678.2	85.43
678.4	83.21
678.6	82.53
678.8	81.28
679.0	81.64
679.2	81.48
679.4	83.08
679.6	81.78
679.8	81.45
680.0	80.33
680.2	80.40
680.4	80.66
680.6	81.21
680.8	80.08
681.0	79.99
681.2	79.60
681.4	78.50
681.6	77.98
681.8	77.33
682.0	76.76
682.2	77.98
682.4	77.03
682.6	76.65
682.8	75.57
683.0	74.17
683.2	74.63
683.4	74.77
683.6	73.97
683.8	74.14
684.0	73.33
684.2	72.32
684.4	72.29
684.6	71.60
684.8	71.18
685.0	71.13
685.2	70.68
685.4	69.66
685.6	69.26
685.8	68.27
686.0	68.77
686.2	68.90
686.4	69.29
686.6	67.80
686.8	66.60
687.0	64.40
687.2	63.52
687.4	62.87
687.6	64.42
687.8	65.14
688.0	66.22
688.2	65.70
688.4	63.73
688.6	62.49
688.8	62.56
689.0	63.00
689.2	64.33
689.4	63.57
689.6	61.78
689.8	61.57
690.0	60.95
690.2	60.65
690.4	59.63
690.6	59.14
690.8	59.03
691.0	59.88
691.2	59.88
691.4	59.63
691.6	59.25
691.8	59.29
692.0	58.48
692.2	57.80
692.4	57.18
692.6	56.66
692.8	57.51
693.0	57.56
693.2	56.96
693.4	55.97
693.6	55.72
693.8	55.57
694.0	55.07
694.2	55.88
694.4	55.70
694.6	55.44
694.8	54.92
695.0	54.26
695.2	52.52
695.4	53.76
695.6	53.46
695.8	54.18
696.0	54.54
696.2	53.67
696.4	52.50
696.6	52.03
696.8	51.14
697.0	51.08
697.2	52.04
697.4	51.39
697.6	50.83
697.8	50.24
698.0	49.55
698.2	49.46
698.4	50.27
698.6	50.53
698.8	49.55
699.0	49.77
699.2	49.63
699.4	49.78
699.6	50.08
699.8	49.89
700.0	48.99
700.2	48.83
700.4	48.23
700.6	47.19
700.8	46.86
701.0	46.22
701.2	47.13
701.4	47.52
701.6	47.07
701.8	46.15
702.0	45.58
702.2	44.44
702.4	45.02
702.6	45.07
702.8	44.91
703.0	45.28
703.2	45.02
703.4	45.58
703.6	46.80
703.8	47.00
704.0	45.81
704.2	44.56
704.4	43.36
704.6	42.79
704.8	43.18
705.0	43.67
705.2	43.49
705.4	43.62
705.6	43.18
705.8	43.11
706.0	42.32
706.2	42.66
706.4	42.56
706.6	42.58
706.8	41.60
707.0	41.69
707.2	41.16
707.4	41.55
707.6	41.31
707.8	41.12
708.0	40.99
708.2	40.84
708.4	41.39
708.6	41.12
708.8	40.64
709.0	39.94
709.2	39.91
709.4	39.11
709.6	38.98
709.8	37.78
710.0	38.17
710.2	38.95
710.4	40.34
710.6	39.10
710.8	38.29
711.0	37.19
711.2	37.80
711.4	37.73
711.6	38.51
711.8	37.74
712.0	37.46
712.2	37.18
712.4	37.29
712.6	36.51
712.8	37.07
713.0	37.17
713.2	36.99
713.4	36.04
713.6	36.20
713.8	36.39
714.0	36.60
714.2	36.02
714.4	34.47
714.6	33.31
714.8	33.34
715.0	33.56
715.2	33.48
715.4	33.76
715.6	34.48
715.8	35.41
716.0	34.88
716.2	34.08
716.4	33.33
716.6	32.83
716.8	33.21
717.0	33.18
717.2	32.82
717.4	32.41
717.6	32.89
717.8	33.06
718.0	32.82
718.2	32.62
718.4	32.56
718.6	32.21
718.8	32.73
719.0	32.53
719.2	31.60
719.4	31.61
719.6	31.07
719.8	30.77
720.0	30.80
720.2	29.80
720.4	28.68
720.6	28.32
720.8	28.82
721.0	29.27
721.2	29.80
721.4	29.65
721.6	28.72
721.8	28.03
722.0	28.29
722.2	28.22
722.4	28.14
722.6	27.94
722.8	27.69
723.0	28.03
723.2	27.69
723.4	28.12
723.6	28.18
723.8	28.14
724.0	28.23
724.2	27.68
724.4	26.70
724.6	26.49
724.8	26.47
725.0	26.74
725.2	26.80
725.4	26.34
725.6	26.05
725.8	25.56
726.0	26.03
726.2	26.22
726.4	25.84
726.6	25.38
726.8	24.74
727.0	23.85
727.2	23.24
727.4	23.19
727.6	23.89
727.8	24.60
728.0	25.02
728.2	24.74
728.4	23.57
728.6	23.03
728.8	23.02
729.0	22.70
729.2	22.88
729.4	22.81
729.6	22.71
729.8	22.36
730.0	22.26
730.2	22.38
730.4	22.35
730.6	22.59
730.8	23.68
731.0	23.87
731.2	24.24
731.4	24.15
731.6	23.35
731.8	22.74
732.0	22.07
732.2	20.93
732.4	20.90
732.6	21.27
732.8	21.85
733.0	21.99
733.2	21.01
733.4	19.90
733.6	19.26
733.8	19.55
734.0	20.04
734.2	20.89
734.4	21.46
734.6	20.94
734.8	20.47
735.0	19.68
735.2	19.01
735.4	18.66
735.6	19.09
735.8	18.69
736.0	18.53
736.2	18.18
736.4	18.06
736.6	18.18
736.8	18.61
737.0	18.78
737.2	18.12
737.4	17.86
737.6	17.81
737.8	17.57
738.0	17.41
738.2	17.50
738.4	16.68
738.6	17.33
738.8	17.73
739.0	17.69
739.2	18.15
739.4	18.43
739.6	18.14
739.8	18.28
740.0	17.84
740.2	17.82
740.4	17.62
740.6	17.21
740.8	17.11
741.0	16.54
741.2	16.22
741.4	16.68
741.6	16.83
741.8	17.11
742.0	17.19
742.2	16.20
742.4	15.63
742.6	15.20
742.8	15.02
743.0	15.31
743.2	15.55
743.4	15.53
743.6	15.75
743.8	15.80
744.0	15.50
744.2	15.34
744.4	15.54
744.6	15.92
744.8	15.88
745.0	16.31
745.2	16.21
745.4	16.22
745.6	16.02
745.8	14.87
746.0	13.94
746.2	13.38
746.4	12.86
746.6	12.99
746.8	13.88
747.0	13.90
747.2	14.39
747.4	14.39
747.6	13.80
747.8	13.32
748.0	13.37
748.2	13.41
748.4	13.97
748.6	13.63
748.8	13.35
749.0	13.59
749.2	13.70
749.4	13.95
749.6	14.36
749.8	13.10
750.0	12.30
750.2	12.13
750.4	12.53
750.6	12.82
750.8	13.51
751.0	13.18
751.2	13.30
751.4	12.83
751.6	12.66
751.8	12.09
752.0	11.85
752.2	11.71
752.4	12.10
752.6	11.94
752.8	12.00
753.0	12.34
753.2	12.37
753.4	12.28
753.6	12.01
753.8	11.69
754.0	11.87
754.2	11.93
754.4	11.84
754.6	11.38
754.8	11.05
755.0	10.94
755.2	11.22
755.4	11.30
755.6	11.54
755.8	11.55
756.0	11.41
756.2	11.02
756.4	10.60
756.6	10.67
756.8	10.85
757.0	11.00
757.2	11.07
757.4	11.07
757.6	10.83
757.8	10.52
758.0	10.43
758.2	10.04
758.4	9.775
758.6	10.26
758.8	10.81
759.0	10.99
759.2	11.19
759.4	10.59
759.6	9.972
759.8	10.13
760.0	10.25
760.2	10.32
760.4	10.11
760.6	9.804
760.8	9.904
761.0	10.17
761.2	9.935
761.4	10.05
761.6	9.820
761.8	9.487
762.0	9.483
762.2	9.513
762.4	9.420
762.6	9.745
762.8	9.755
763.0	9.445
763.2	9.172
763.4	8.928
763.6	8.864
763.8	9.196
764.0	9.321
764.2	9.278
764.4	9.413
764.6	9.093
764.8	9.106
765.0	9.794
765.2	9.829
765.4	9.750
765.6	9.906
765.8	9.610
766.0	9.418
766.2	9.295
766.4	8.963
766.6	8.660
766.8	8.668
767.0	9.001
767.2	9.094
767.4	9.267
767.6	9.155
767.8	8.628
768.0	8.382
768.2	8.501
768.4	8.232
768.6	8.215
768.8	8.217
769.0	7.911
769.2	7.958
769.4	8.429
769.6	8.325
769.8	8.248
770.0	8.463
770.2	8.377
770.4	8.040
770.6	7.990
770.8	7.405
771.0	7.045
771.2	6.881
771.4	7.138
771.6	7.439
771.8	7.892
772.0	7.698
772.2	7.831
772.4	7.683
772.6	7.677
772.8	7.766
773.0	8.006
773.2	7.989
773.4	8.111
773.6	7.674
773.8	7.131
774.0	6.689
774.2	6.618
774.4	6.904
774.6	7.422
774.8	7.434
775.0	7.350
775.2	7.379
775.4	7.368
775.6	7.167
775.8	7.602
776.0	7.342
776.2	7.114
776.4	6.885
776.6	6.992
776.8	6.853
777.0	6.996
777.2	6.518
777.4	6.633
777.6	6.560
777.8	7.052
778.0	7.175
778.2	6.877
778.4	6.153
778.6	6.296
778.8	6.361
779.0	6.497
779.2	6.327
779.4	6.270
779.6	6.165
779.8	6.146
780.0	6.315
780.2	6.428
780.4	6.563
780.6	6.865
780.8	6.835
781.0	6.477
781.2	6.495
781.4	6.752
781.6	6.624
781.8	6.677
782.0	6.530
782.2	6.662
782.4	6.480
782.6	6.430
782.8	6.001
783.0	5.967
783.2	6.266
783.4	6.389
783.6	6.335
783.8	6.153
784.0	6.037
784.2	6.119
784.4	6.060
784.6	5.888
784.8	5.725
785.0	5.275
785.2	5.531
785.4	5.985
785.6	6.349
785.8	6.643
786.0	6.455
786.2	6.114
786.4	6.304
786.6	6.505
786.8	6.684
787.0	6.702
787.2	6.449
787.4	6.036
787.6	6.106
787.8	5.990
788.0	6.035
788.2	6.445
788.4	6.559
788.6	6.536
788.8	6.751
789.0	6.560
789.2	6.381
789.4	6.240
789.6	5.969
789.8	5.607
790.0	5.543
790.2	5.467
790.4	5.554
790.6	5.593
790.8	5.553
791.0	5.825
791.2	6.121
791.4	6.143
791.6	5.903
791.8	5.383
792.0	5.298
792.2	5.627
792.4	5.748
792.6	5.638
792.8	5.114
793.0	4.928
793.2	5.533
793.4	5.858
793.6	6.255
793.8	6.437
794.0	5.947
794.2	6.051
794.4	6.367
794.6	6.258
794.8	6.285
795.0	6.266
795.2	5.694
795.4	5.689
795.6	5.821
795.8	5.917
796.0	6.159
796.2	5.822
796.4	5.759
796.6	5.685
796.8	5.856
797.0	6.001
797.2	6.397
797.4	6.255
797.6	6.657
797.8	6.474
798.0	6.127
798.2	5.984
798.4	5.806
798.6	6.147
798.8	6.672
799.0	6.680
799.2	6.237
799.4	5.718
799.6	5.538
799.8	5.543
800.0	5.688
800.2	5.744
800.4	5.811
800.6	5.639
800.8	5.994
801.0	6.000
801.2	6.222
801.4	6.147
801.6	6.303
801.8	6.445
802.0	6.150
802.2	6.107
802.4	5.831
802.6	5.535
802.8	5.657
803.0	5.798
803.2	5.646
803.4	5.868
803.6	5.747
803.8	5.957
804.0	6.151
804.2	6.099
804.4	6.006
804.6	5.883
804.8	5.605
805.0	5.606
805.2	5.427
805.4	5.734
805.6	5.893
805.8	5.958
806.0	5.797
806.2	5.429
806.4	5.200
806.6	5.307
806.8	5.678
807.0	6.001
807.2	6.062
807.4	5.804
807.6	5.675
807.8	5.145
808.0	5.107
808.2	5.146
808.4	5.112
808.6	5.276
808.8	5.723
809.0	5.591
809.2	5.323
809.4	5.326
809.6	5.229
809.8	5.225
810.0	5.501
810.2	5.359
810.4	5.211
810.6	5.007
810.8	5.015
811.0	4.984
811.2	5.334
811.4	5.212
811.6	5.339
811.8	5.114
812.0	4.981
812.2	4.996
812.4	5.490
812.6	5.464
812.8	5.549
813.0	5.405
813.2	5.192
813.4	5.187
813.6	5.438
813.8	5.224
814.0	5.168
814.2	5.080
814.4	4.775
814.6	4.865
814.8	5.063
815.0	4.952
815.2	4.987
815.4	4.921
815.6	4.600
815.8	4.631
816.0	4.818
816.2	4.678
816.4	4.385
816.6	4.136
816.8	4.005
817.0	4.184
817.2	4.559
817.4	4.788
817.6	5.020
817.8	4.970
818.0	5.042
818.2	4.981
818.4	4.791
818.6	4.470
818.8	4.705
819.0	4.414
819.2	4.424
819.4	4.169
819.6	4.132
819.8	4.151
820.0	4.703
820.2	4.648
820.4	4.517
820.6	4.229
820.8	4.333
821.0	4.420
821.2	4.517
821.4	4.507
821.6	4.461
821.8	4.692
822.0	4.808
822.2	4.525
822.4	4.408
822.6	4.186
822.8	4.241
823.0	4.595
823.2	4.428
823.4	4.271
823.6	4.135
823.8	4.109
824.0	4.150
824.2	4.517
824.4	4.610
824.6	4.657
824.8	4.396
825.0	4.434
825.2	4.285
825.4	4.313
825.6	4.361
825.8	4.495
826.0	4.340
826.2	4.316
826.4	4.422
826.6	4.162
826.8	4.025
827.0	4.078
827.2	3.890
827.4	3.974
827.6	4.059
827.8	4.148
828.0	4.419
828.2	4.619
828.4	4.389
828.6	4.188
828.8	3.590
829.0	3.664
829.2	3.915
829.4	3.910
829.6	3.628
829.8	3.523
830.0	3.600
830.2	3.898
830.4	3.974
830.6	3.777
830.8	3.613
831.0	3.667
831.2	3.815
831.4	3.676
831.6	3.602
831.8	3.281
832.0	2.973
832.2	2.992
832.4	3.047
832.6	3.083
832.8	3.311
833.0	3.278
833.2	3.013
833.4	3.093
833.6	3.173
833.8	3.021
834.0	3.019
834.2	2.948
834.4	2.883
834.6	2.905
834.8	2.980
835.0	2.775
835.2	2.606
835.4	2.486
835.6	2.570
835.8	2.839
836.0	3.254
836.2	3.429
836.4	3.416
836.6	3.269
836.8	3.152
837.0	3.270
837.2	3.266
837.4	3.171
837.6	3.006
837.8	2.770
838.0	2.684
838.2	2.610
838.4	2.604
838.6	2.733
838.8	3.117
839.0	3.208
839.2	3.032
839.4	2.773
839.6	2.721
839.8	2.462
840.0	2.611
840.2	2.557
840.4	2.540
840.6	2.621
840.8	2.742
841.0	2.705
841.2	2.631
841.4	2.424
841.6	2.323
841.8	2.133
842.0	2.049
842.2	2.276
842.4	2.252
842.6	2.332
842.8	2.482
843.0	2.529
843.2	2.538
843.4	2.561
843.6	2.200
843.8	2.120
844.0	2.092
844.2	2.144
844.4	2.193
844.6	2.343
844.8	2.370
845.0	2.555
845.2	2.375
845.4	2.336
845.6	2.267
845.8	2.307
846.0	2.449
846.2	2.534
846.4	2.299
846.6	2.352
846.8	2.308
847.0	2.239
847.2	2.212
847.4	2.207
847.6	2.325
847.8	2.522
848.0	2.441
848.2	2.344
848.4	2.097
848.6	2.054
848.8	2.040
849.0	1.990
849.2	1.868
849.4	1.884
849.6	1.873
849.8	2.063
850.0	2.575

