Sample:	'20211010A(EM)
File name:	r-cds 1;Y 2.FDS
Run date:	'08:18:10, 03/22/2023
Operator:	Administrator
Comment:	'

Instrument
Model:	F-4700 FL Spectrophotometer
Serial number:	2019-001
ROM Version:	5J24010 00

Instrument parameters
Measurement type:	Wavelength scan
Scan mode:	Emission
Data mode:	Fluorescence
EX WL:	530.0 nm
EM  Start WL:	550.0 nm
EM  End WL:	900.0 nm
Scan speed:	1200 nm/min
Delay:	0.0 s
EX Slit:	10.0 nm
EM Slit:	10.0 nm
PMT Voltage:	660 V
Response:	0.002 s
Corrected spectra:	Off
Shutter control:	On

Processing performed
Savitsky-Golay smoothed
Smoothing order:	3
Number of points:	7
Number of times:	1

Peak integration
Integration method:	Rectangular
Sensitivity:	1
Threshold:	1.000

Peaks
No.	Start(nm)	Apex(nm)	End(nm)	Height(Data)	Valley(nm)	Valley(Data)
1	550.0	647.0	648.4	9483	648.4	9452
2	648.4	649.4	789.8	9478	789.8	130.1
3	789.8	790.8	792.8	134.0	792.8	122.6
4	792.8	793.8	795.2	126.2	795.2	113.2
5	795.2	796.0	801.4	120.7	801.4	103.8
6	801.4	802.0	810.8	105.9	810.8	84.02
7	810.8	811.4	817.0	87.41	817.0	67.75
8	817.0	817.6	826.8	71.75	826.8	45.75
9	826.8	827.2	867.0	47.20	867.0	3.215
10	867.0	867.6	875.6	4.716	875.6	2.948
11	875.6	877.4	887.2	4.276	887.2	2.583
12	887.2	888.4	889.4	4.029	889.4	2.710
13	889.4	890.8	891.6	4.190	891.6	2.968
14	891.6	893.2	894.0	4.293	894.0	2.891
15	894.0	896.8	897.8	4.219	897.8	2.881

Data points
nm	Data
550.0	753.0
550.2	740.5
550.4	742.5
550.6	752.8
550.8	763.8
551.0	772.3
551.2	778.1
551.4	776.7
551.6	778.4
551.8	781.9
552.0	784.6
552.2	787.1
552.4	794.5
552.6	796.0
552.8	809.2
553.0	825.5
553.2	835.4
553.4	837.3
553.6	839.6
553.8	835.7
554.0	840.7
554.2	854.1
554.4	863.2
554.6	871.5
554.8	879.6
555.0	889.3
555.2	899.3
555.4	910.6
555.6	920.9
555.8	928.4
556.0	933.5
556.2	941.0
556.4	941.1
556.6	949.7
556.8	958.7
557.0	969.9
557.2	978.5
557.4	989.0
557.6	993.1
557.8	1008
558.0	1014
558.2	1028
558.4	1033
558.6	1038
558.8	1040
559.0	1053
559.2	1065
559.4	1084
559.6	1106
559.8	1118
560.0	1124
560.2	1131
560.4	1140
560.6	1151
560.8	1170
561.0	1182
561.2	1201
561.4	1208
561.6	1227
561.8	1242
562.0	1261
562.2	1273
562.4	1290
562.6	1294
562.8	1309
563.0	1322
563.2	1342
563.4	1359
563.6	1372
563.8	1382
564.0	1405
564.2	1420
564.4	1436
564.6	1456
564.8	1463
565.0	1472
565.2	1494
565.4	1512
565.6	1534
565.8	1555
566.0	1572
566.2	1588
566.4	1602
566.6	1617
566.8	1635
567.0	1650
567.2	1680
567.4	1705
567.6	1726
567.8	1746
568.0	1758
568.2	1769
568.4	1786
568.6	1807
568.8	1829
569.0	1855
569.2	1876
569.4	1894
569.6	1911
569.8	1926
570.0	1945
570.2	1963
570.4	1983
570.6	2010
570.8	2035
571.0	2053
571.2	2076
571.4	2094
571.6	2117
571.8	2148
572.0	2167
572.2	2193
572.4	2208
572.6	2231
572.8	2256
573.0	2281
573.2	2302
573.4	2330
573.6	2354
573.8	2383
574.0	2408
574.2	2425
574.4	2444
574.6	2463
574.8	2483
575.0	2515
575.2	2540
575.4	2557
575.6	2572
575.8	2595
576.0	2610
576.2	2646
576.4	2676
576.6	2702
576.8	2727
577.0	2751
577.2	2768
577.4	2791
577.6	2813
577.8	2838
578.0	2861
578.2	2882
578.4	2904
578.6	2916
578.8	2930
579.0	2952
579.2	2986
579.4	3011
579.6	3041
579.8	3069
580.0	3084
580.2	3099
580.4	3131
580.6	3155
580.8	3179
581.0	3203
581.2	3231
581.4	3249
581.6	3273
581.8	3292
582.0	3312
582.2	3327
582.4	3353
582.6	3363
582.8	3378
583.0	3388
583.2	3417
583.4	3436
583.6	3468
583.8	3499
584.0	3518
584.2	3546
584.4	3577
584.6	3603
584.8	3634
585.0	3658
585.2	3655
585.4	3679
585.6	3695
585.8	3721
586.0	3743
586.2	3767
586.4	3771
586.6	3787
586.8	3795
587.0	3800
587.2	3817
587.4	3845
587.6	3865
587.8	3892
588.0	3912
588.2	3923
588.4	3935
588.6	3950
588.8	3972
589.0	3986
589.2	4009
589.4	4048
589.6	4067
589.8	4093
590.0	4111
590.2	4115
590.4	4131
590.6	4138
590.8	4137
591.0	4148
591.2	4172
591.4	4193
591.6	4211
591.8	4218
592.0	4234
592.2	4243
592.4	4268
592.6	4276
592.8	4287
593.0	4287
593.2	4299
593.4	4307
593.6	4327
593.8	4348
594.0	4374
594.2	4387
594.4	4405
594.6	4412
594.8	4415
595.0	4411
595.2	4419
595.4	4430
595.6	4450
595.8	4470
596.0	4485
596.2	4501
596.4	4530
596.6	4542
596.8	4553
597.0	4552
597.2	4559
597.4	4562
597.6	4570
597.8	4583
598.0	4590
598.2	4586
598.4	4606
598.6	4608
598.8	4610
599.0	4628
599.2	4643
599.4	4650
599.6	4663
599.8	4674
600.0	4677
600.2	4684
600.4	4690
600.6	4694
600.8	4708
601.0	4720
601.2	4734
601.4	4748
601.6	4752
601.8	4759
602.0	4768
602.2	4763
602.4	4782
602.6	4801
602.8	4808
603.0	4805
603.2	4823
603.4	4826
603.6	4845
603.8	4855
604.0	4858
604.2	4853
604.4	4873
604.6	4883
604.8	4897
605.0	4901
605.2	4899
605.4	4905
605.6	4911
605.8	4934
606.0	4943
606.2	4956
606.4	4958
606.6	4960
606.8	4962
607.0	4972
607.2	4980
607.4	5002
607.6	5011
607.8	5017
608.0	5018
608.2	5031
608.4	5048
608.6	5063
608.8	5082
609.0	5109
609.2	5116
609.4	5136
609.6	5129
609.8	5131
610.0	5135
610.2	5158
610.4	5165
610.6	5186
610.8	5190
611.0	5199
611.2	5192
611.4	5214
611.6	5222
611.8	5229
612.0	5257
612.2	5273
612.4	5293
612.6	5313
612.8	5330
613.0	5335
613.2	5366
613.4	5379
613.6	5395
613.8	5401
614.0	5405
614.2	5420
614.4	5441
614.6	5454
614.8	5482
615.0	5500
615.2	5502
615.4	5522
615.6	5537
615.8	5544
616.0	5569
616.2	5580
616.4	5605
616.6	5632
616.8	5659
617.0	5676
617.2	5690
617.4	5696
617.6	5719
617.8	5733
618.0	5757
618.2	5773
618.4	5797
618.6	5804
618.8	5829
619.0	5862
619.2	5894
619.4	5931
619.6	5955
619.8	5960
620.0	5972
620.2	5996
620.4	6013
620.6	6049
620.8	6078
621.0	6128
621.2	6156
621.4	6180
621.6	6179
621.8	6188
622.0	6209
622.2	6259
622.4	6297
622.6	6330
622.8	6355
623.0	6378
623.2	6409
623.4	6436
623.6	6462
623.8	6489
624.0	6514
624.2	6546
624.4	6596
624.6	6620
624.8	6636
625.0	6662
625.2	6666
625.4	6692
625.6	6730
625.8	6761
626.0	6801
626.2	6843
626.4	6871
626.6	6913
626.8	6941
627.0	6966
627.2	6993
627.4	7022
627.6	7060
627.8	7099
628.0	7134
628.2	7161
628.4	7204
628.6	7242
628.8	7278
629.0	7311
629.2	7342
629.4	7375
629.6	7421
629.8	7447
630.0	7479
630.2	7516
630.4	7535
630.6	7553
630.8	7587
631.0	7627
631.2	7669
631.4	7709
631.6	7733
631.8	7757
632.0	7796
632.2	7834
632.4	7864
632.6	7902
632.8	7945
633.0	7988
633.2	8026
633.4	8054
633.6	8069
633.8	8098
634.0	8120
634.2	8160
634.4	8206
634.6	8248
634.8	8267
635.0	8293
635.2	8308
635.4	8344
635.6	8381
635.8	8421
636.0	8448
636.2	8481
636.4	8496
636.6	8528
636.8	8544
637.0	8574
637.2	8613
637.4	8645
637.6	8666
637.8	8715
638.0	8746
638.2	8776
638.4	8811
638.6	8817
638.8	8824
639.0	8859
639.2	8885
639.4	8912
639.6	8945
639.8	8974
640.0	8999
640.2	9017
640.4	9042
640.6	9063
640.8	9082
641.0	9099
641.2	9124
641.4	9143
641.6	9179
641.8	9197
642.0	9210
642.2	9207
642.4	9224
642.6	9248
642.8	9287
643.0	9314
643.2	9328
643.4	9332
643.6	9335
643.8	9338
644.0	9369
644.2	9376
644.4	9371
644.6	9374
644.8	9382
645.0	9397
645.2	9422
645.4	9434
645.6	9436
645.8	9436
646.0	9443
646.2	9453
646.4	9458
646.6	9477
646.8	9482
647.0	9483
647.2	9465
647.4	9461
647.6	9455
647.8	9471
648.0	9461
648.2	9469
648.4	9452
648.6	9460
648.8	9454
649.0	9460
649.2	9469
649.4	9478
649.6	9464
649.8	9456
650.0	9439
650.2	9432
650.4	9432
650.6	9411
650.8	9396
651.0	9400
651.2	9402
651.4	9397
651.6	9398
651.8	9379
652.0	9357
652.2	9356
652.4	9323
652.6	9293
652.8	9298
653.0	9285
653.2	9265
653.4	9260
653.6	9239
653.8	9219
654.0	9211
654.2	9199
654.4	9179
654.6	9154
654.8	9138
655.0	9118
655.2	9108
655.4	9095
655.6	9069
655.8	9047
656.0	9034
656.2	8998
656.4	8981
656.6	8960
656.8	8921
657.0	8896
657.2	8870
657.4	8839
657.6	8819
657.8	8808
658.0	8775
658.2	8736
658.4	8697
658.6	8668
658.8	8639
659.0	8626
659.2	8616
659.4	8592
659.6	8561
659.8	8532
660.0	8510
660.2	8471
660.4	8440
660.6	8390
660.8	8335
661.0	8306
661.2	8309
661.4	8290
661.6	8272
661.8	8233
662.0	8182
662.2	8124
662.4	8105
662.6	8064
662.8	8034
663.0	8007
663.2	7993
663.4	7947
663.6	7932
663.8	7899
664.0	7846
664.2	7802
664.4	7779
664.6	7733
664.8	7711
665.0	7689
665.2	7648
665.4	7618
665.6	7583
665.8	7530
666.0	7497
666.2	7470
666.4	7433
666.6	7400
666.8	7370
667.0	7327
667.2	7300
667.4	7276
667.6	7213
667.8	7158
668.0	7108
668.2	7072
668.4	7034
668.6	7013
668.8	6980
669.0	6946
669.2	6901
669.4	6864
669.6	6806
669.8	6777
670.0	6750
670.2	6727
670.4	6695
670.6	6652
670.8	6602
671.0	6574
671.2	6536
671.4	6496
671.6	6465
671.8	6426
672.0	6391
672.2	6359
672.4	6323
672.6	6283
672.8	6254
673.0	6219
673.2	6178
673.4	6135
673.6	6112
673.8	6074
674.0	6037
674.2	5995
674.4	5947
674.6	5914
674.8	5901
675.0	5871
675.2	5834
675.4	5794
675.6	5759
675.8	5711
676.0	5670
676.2	5641
676.4	5601
676.6	5565
676.8	5535
677.0	5498
677.2	5479
677.4	5464
677.6	5443
677.8	5407
678.0	5348
678.2	5299
678.4	5269
678.6	5227
678.8	5204
679.0	5173
679.2	5129
679.4	5090
679.6	5073
679.8	5045
680.0	5020
680.2	4988
680.4	4953
680.6	4921
680.8	4902
681.0	4886
681.2	4864
681.4	4832
681.6	4783
681.8	4742
682.0	4702
682.2	4669
682.4	4641
682.6	4615
682.8	4590
683.0	4565
683.2	4546
683.4	4518
683.6	4494
683.8	4462
684.0	4431
684.2	4388
684.4	4360
684.6	4337
684.8	4327
685.0	4302
685.2	4271
685.4	4238
685.6	4214
685.8	4186
686.0	4160
686.2	4136
686.4	4109
686.6	4082
686.8	4075
687.0	4043
687.2	3999
687.4	3964
687.6	3936
687.8	3922
688.0	3922
688.2	3912
688.4	3887
688.6	3855
688.8	3811
689.0	3775
689.2	3755
689.4	3740
689.6	3729
689.8	3711
690.0	3690
690.2	3664
690.4	3661
690.6	3643
690.8	3625
691.0	3602
691.2	3577
691.4	3544
691.6	3525
691.8	3502
692.0	3486
692.2	3464
692.4	3439
692.6	3415
692.8	3400
693.0	3380
693.2	3368
693.4	3346
693.6	3326
693.8	3305
694.0	3290
694.2	3276
694.4	3275
694.6	3264
694.8	3248
695.0	3224
695.2	3185
695.4	3163
695.6	3146
695.8	3128
696.0	3114
696.2	3095
696.4	3070
696.6	3060
696.8	3046
697.0	3041
697.2	3027
697.4	3010
697.6	2992
697.8	2974
698.0	2955
698.2	2949
698.4	2926
698.6	2910
698.8	2898
699.0	2886
699.2	2873
699.4	2862
699.6	2841
699.8	2821
700.0	2810
700.2	2800
700.4	2787
700.6	2781
700.8	2774
701.0	2749
701.2	2727
701.4	2705
701.6	2687
701.8	2681
702.0	2680
702.2	2658
702.4	2645
702.6	2632
702.8	2619
703.0	2603
703.2	2598
703.4	2580
703.6	2570
703.8	2561
704.0	2546
704.2	2520
704.4	2506
704.6	2486
704.8	2476
705.0	2462
705.2	2453
705.4	2439
705.6	2438
705.8	2427
706.0	2418
706.2	2401
706.4	2390
706.6	2374
706.8	2366
707.0	2349
707.2	2332
707.4	2313
707.6	2303
707.8	2296
708.0	2295
708.2	2292
708.4	2275
708.6	2248
708.8	2231
709.0	2209
709.2	2204
709.4	2203
709.6	2195
709.8	2177
710.0	2166
710.2	2148
710.4	2143
710.6	2136
710.8	2129
711.0	2112
711.2	2098
711.4	2088
711.6	2066
711.8	2040
712.0	2026
712.2	2017
712.4	2011
712.6	2008
712.8	2001
713.0	1984
713.2	1967
713.4	1955
713.6	1940
713.8	1916
714.0	1908
714.2	1897
714.4	1892
714.6	1899
714.8	1897
715.0	1881
715.2	1860
715.4	1840
715.6	1823
715.8	1811
716.0	1805
716.2	1797
716.4	1788
716.6	1779
716.8	1766
717.0	1756
717.2	1749
717.4	1731
717.6	1715
717.8	1696
718.0	1694
718.2	1694
718.4	1684
718.6	1665
718.8	1648
719.0	1639
719.2	1637
719.4	1627
719.6	1620
719.8	1610
720.0	1600
720.2	1586
720.4	1562
720.6	1541
720.8	1537
721.0	1531
721.2	1533
721.4	1519
721.6	1507
721.8	1495
722.0	1485
722.2	1475
722.4	1462
722.6	1439
722.8	1429
723.0	1421
723.2	1412
723.4	1402
723.6	1397
723.8	1390
724.0	1389
724.2	1388
724.4	1377
724.6	1362
724.8	1346
725.0	1328
725.2	1312
725.4	1303
725.6	1296
725.8	1299
726.0	1291
726.2	1281
726.4	1273
726.6	1258
726.8	1245
727.0	1239
727.2	1225
727.4	1219
727.6	1217
727.8	1208
728.0	1205
728.2	1196
728.4	1181
728.6	1169
728.8	1162
729.0	1153
729.2	1146
729.4	1134
729.6	1126
729.8	1114
730.0	1111
730.2	1108
730.4	1100
730.6	1089
730.8	1083
731.0	1065
731.2	1056
731.4	1050
731.6	1044
731.8	1038
732.0	1036
732.2	1026
732.4	1021
732.6	1015
732.8	1002
733.0	988.8
733.2	976.3
733.4	964.9
733.6	960.5
733.8	957.6
734.0	948.3
734.2	941.7
734.4	935.2
734.6	930.4
734.8	928.0
735.0	923.0
735.2	914.5
735.4	908.8
735.6	900.9
735.8	895.5
736.0	890.4
736.2	881.8
736.4	874.1
736.6	865.7
736.8	858.2
737.0	852.9
737.2	846.5
737.4	839.9
737.6	829.8
737.8	819.2
738.0	814.8
738.2	813.7
738.4	807.8
738.6	802.1
738.8	795.9
739.0	788.9
739.2	782.1
739.4	776.1
739.6	764.6
739.8	755.4
740.0	750.4
740.2	750.5
740.4	749.4
740.6	745.1
740.8	739.0
741.0	733.8
741.2	725.0
741.4	718.2
741.6	707.9
741.8	704.3
742.0	699.6
742.2	697.9
742.4	695.9
742.6	687.9
742.8	677.1
743.0	677.0
743.2	674.2
743.4	670.7
743.6	668.3
743.8	661.1
744.0	650.5
744.2	642.6
744.4	642.9
744.6	634.6
744.8	629.6
745.0	627.2
745.2	625.0
745.4	623.5
745.6	624.0
745.8	613.2
746.0	604.7
746.2	600.4
746.4	600.9
746.6	599.2
746.8	590.6
747.0	584.2
747.2	576.4
747.4	574.0
747.6	572.1
747.8	566.0
748.0	560.2
748.2	555.4
748.4	548.0
748.6	544.9
748.8	539.4
749.0	537.1
749.2	535.4
749.4	529.3
749.6	530.1
749.8	529.2
750.0	522.1
750.2	514.5
750.4	506.5
750.6	498.6
750.8	497.3
751.0	497.0
751.2	496.5
751.4	492.6
751.6	491.0
751.8	485.9
752.0	479.0
752.2	478.7
752.4	480.8
752.6	479.1
752.8	476.9
753.0	467.1
753.2	462.8
753.4	456.7
753.6	454.0
753.8	452.8
754.0	450.1
754.2	443.4
754.4	445.2
754.6	437.7
754.8	433.7
755.0	433.6
755.2	430.9
755.4	428.6
755.6	426.9
755.8	420.5
756.0	414.2
756.2	412.2
756.4	409.7
756.6	411.4
756.8	406.4
757.0	403.1
757.2	396.2
757.4	391.8
757.6	387.3
757.8	388.2
758.0	383.7
758.2	381.4
758.4	379.6
758.6	378.2
758.8	377.2
759.0	372.6
759.2	365.2
759.4	360.5
759.6	357.9
759.8	355.6
760.0	355.8
760.2	357.4
760.4	358.1
760.6	355.8
760.8	352.5
761.0	347.2
761.2	339.6
761.4	337.0
761.6	333.4
761.8	329.0
762.0	327.5
762.2	326.1
762.4	326.3
762.6	326.1
762.8	325.7
763.0	324.1
763.2	318.4
763.4	313.5
763.6	313.5
763.8	312.0
764.0	314.4
764.2	313.4
764.4	311.7
764.6	307.1
764.8	302.6
765.0	298.4
765.2	296.1
765.4	294.8
765.6	295.1
765.8	290.0
766.0	286.2
766.2	282.0
766.4	274.9
766.6	274.9
766.8	273.5
767.0	272.4
767.2	274.0
767.4	271.7
767.6	267.9
767.8	266.0
768.0	260.6
768.2	260.3
768.4	258.6
768.6	260.1
768.8	261.6
769.0	259.9
769.2	257.4
769.4	254.7
769.6	249.1
769.8	247.7
770.0	244.5
770.2	244.1
770.4	245.0
770.6	243.9
770.8	240.1
771.0	236.3
771.2	233.4
771.4	233.2
771.6	232.5
771.8	233.5
772.0	229.5
772.2	226.3
772.4	225.5
772.6	222.7
772.8	223.3
773.0	223.4
773.2	218.8
773.4	214.3
773.6	212.0
773.8	209.1
774.0	210.1
774.2	210.4
774.4	209.2
774.6	206.3
774.8	203.5
775.0	201.4
775.2	200.1
775.4	200.1
775.6	203.2
775.8	201.7
776.0	201.3
776.2	199.5
776.4	198.5
776.6	198.4
776.8	198.9
777.0	196.2
777.2	195.9
777.4	193.3
777.6	191.1
777.8	189.7
778.0	186.3
778.2	184.3
778.4	185.7
778.6	183.9
778.8	182.4
779.0	181.3
779.2	179.2
779.4	176.8
779.6	178.3
779.8	175.7
780.0	173.2
780.2	172.4
780.4	171.5
780.6	167.6
780.8	168.5
781.0	169.2
781.2	166.9
781.4	169.3
781.6	170.2
781.8	166.9
782.0	164.6
782.2	165.7
782.4	162.2
782.6	162.0
782.8	160.7
783.0	157.8
783.2	155.5
783.4	159.9
783.6	158.9
783.8	158.2
784.0	156.4
784.2	152.6
784.4	152.6
784.6	154.9
784.8	153.1
785.0	152.0
785.2	151.3
785.4	148.6
785.6	150.0
785.8	150.7
786.0	150.6
786.2	149.2
786.4	147.9
786.6	145.3
786.8	142.7
787.0	141.3
787.2	142.3
787.4	146.7
787.6	147.4
787.8	146.0
788.0	143.4
788.2	138.9
788.4	133.8
788.6	133.4
788.8	133.5
789.0	133.5
789.2	133.7
789.4	131.5
789.6	131.3
789.8	130.1
790.0	132.5
790.2	132.9
790.4	133.0
790.6	132.2
790.8	134.0
791.0	131.3
791.2	127.6
791.4	123.5
791.6	122.8
791.8	122.9
792.0	124.7
792.2	125.8
792.4	123.7
792.6	123.5
792.8	122.6
793.0	123.2
793.2	124.7
793.4	125.1
793.6	123.3
793.8	126.2
794.0	125.1
794.2	125.5
794.4	123.6
794.6	119.7
794.8	115.4
795.0	115.1
795.2	113.2
795.4	115.3
795.6	117.9
795.8	119.7
796.0	120.7
796.2	120.0
796.4	118.4
796.6	118.3
796.8	117.7
797.0	116.2
797.2	114.7
797.4	113.5
797.6	112.9
797.8	115.1
798.0	114.9
798.2	115.1
798.4	114.2
798.6	113.4
798.8	111.7
799.0	111.3
799.2	110.6
799.4	110.1
799.6	108.9
799.8	108.3
800.0	107.4
800.2	105.5
800.4	105.7
800.6	105.6
800.8	105.2
801.0	104.3
801.2	104.2
801.4	103.8
801.6	104.4
801.8	105.8
802.0	105.9
802.2	104.5
802.4	104.1
802.6	104.1
802.8	103.0
803.0	102.5
803.2	101.2
803.4	100.7
803.6	101.2
803.8	102.1
804.0	100.4
804.2	100.3
804.4	99.56
804.6	99.73
804.8	98.85
805.0	98.51
805.2	95.51
805.4	94.99
805.6	93.57
805.8	95.05
806.0	96.36
806.2	97.87
806.4	96.04
806.6	95.01
806.8	92.02
807.0	92.24
807.2	95.08
807.4	95.68
807.6	95.44
807.8	95.01
808.0	93.43
808.2	91.12
808.4	91.07
808.6	87.83
808.8	86.84
809.0	85.05
809.2	86.01
809.4	86.47
809.6	87.08
809.8	86.02
810.0	85.36
810.2	84.17
810.4	84.19
810.6	84.25
810.8	84.02
811.0	86.31
811.2	87.23
811.4	87.41
811.6	86.04
811.8	82.95
812.0	79.87
812.2	80.12
812.4	79.79
812.6	80.85
812.8	80.13
813.0	79.81
813.2	78.16
813.4	77.69
813.6	77.51
813.8	77.62
814.0	76.86
814.2	78.78
814.4	77.40
814.6	76.20
814.8	74.35
815.0	73.25
815.2	73.42
815.4	74.90
815.6	74.63
815.8	73.20
816.0	72.05
816.2	71.14
816.4	69.52
816.6	69.40
816.8	68.49
817.0	67.75
817.2	70.03
817.4	71.17
817.6	71.75
817.8	70.63
818.0	68.20
818.2	66.22
818.4	65.49
818.6	64.79
818.8	64.44
819.0	62.51
819.2	62.38
819.4	62.28
819.6	62.20
819.8	61.18
820.0	60.82
820.2	60.55
820.4	60.83
820.6	60.92
820.8	61.30
821.0	59.84
821.2	59.36
821.4	58.86
821.6	58.15
821.8	57.56
822.0	58.67
822.2	58.97
822.4	58.70
822.6	56.92
822.8	57.01
823.0	55.72
823.2	55.79
823.4	55.43
823.6	54.10
823.8	52.91
824.0	53.50
824.2	52.17
824.4	51.84
824.6	51.67
824.8	50.76
825.0	52.06
825.2	52.54
825.4	52.32
825.6	50.43
825.8	48.39
826.0	46.85
826.2	45.84
826.4	46.12
826.6	47.09
826.8	45.75
827.0	46.55
827.2	47.20
827.4	46.06
827.6	46.37
827.8	44.27
828.0	42.00
828.2	41.76
828.4	41.26
828.6	42.10
828.8	43.62
829.0	43.03
829.2	42.09
829.4	40.83
829.6	38.86
829.8	38.09
830.0	37.54
830.2	38.37
830.4	37.76
830.6	37.40
830.8	36.26
831.0	35.61
831.2	34.97
831.4	33.31
831.6	32.43
831.8	32.98
832.0	33.99
832.2	34.75
832.4	34.72
832.6	32.38
832.8	31.82
833.0	32.34
833.2	32.49
833.4	31.95
833.6	31.18
833.8	30.43
834.0	29.14
834.2	29.04
834.4	28.25
834.6	27.02
834.8	26.70
835.0	26.51
835.2	26.38
835.4	27.13
835.6	27.75
835.8	27.16
836.0	26.80
836.2	26.00
836.4	25.17
836.6	24.33
836.8	23.34
837.0	22.88
837.2	22.05
837.4	21.61
837.6	21.54
837.8	21.39
838.0	21.69
838.2	21.85
838.4	21.41
838.6	21.51
838.8	21.11
839.0	20.38
839.2	20.71
839.4	20.31
839.6	19.79
839.8	19.79
840.0	18.22
840.2	17.37
840.4	18.10
840.6	18.90
840.8	18.20
841.0	18.24
841.2	16.57
841.4	15.91
841.6	16.38
841.8	16.65
842.0	16.18
842.2	16.31
842.4	14.82
842.6	14.56
842.8	14.27
843.0	14.82
843.2	15.10
843.4	14.87
843.6	13.78
843.8	13.23
844.0	12.67
844.2	12.88
844.4	12.76
844.6	12.38
844.8	12.67
845.0	12.31
845.2	12.11
845.4	12.44
845.6	12.28
845.8	11.79
846.0	12.16
846.2	10.94
846.4	9.972
846.6	10.83
846.8	11.34
847.0	11.58
847.2	11.94
847.4	10.98
847.6	9.823
847.8	9.714
848.0	10.18
848.2	10.84
848.4	10.79
848.6	10.26
848.8	9.400
849.0	8.859
849.2	9.200
849.4	9.322
849.6	9.142
849.8	8.810
850.0	8.353
850.2	8.121
850.4	8.221
850.6	8.064
850.8	8.129
851.0	7.835
851.2	7.886
851.4	7.904
851.6	8.079
851.8	8.301
852.0	8.058
852.2	7.340
852.4	7.203
852.6	7.519
852.8	7.106
853.0	6.729
853.2	6.521
853.4	6.042
853.6	6.253
853.8	6.727
854.0	6.530
854.2	6.212
854.4	6.080
854.6	5.827
854.8	5.801
855.0	5.676
855.2	5.794
855.4	5.848
855.6	6.142
855.8	6.142
856.0	5.643
856.2	5.588
856.4	5.428
856.6	5.594
856.8	5.960
857.0	6.155
857.2	5.901
857.4	6.147
857.6	5.832
857.8	5.419
858.0	5.198
858.2	5.305
858.4	5.672
858.6	5.980
858.8	6.056
859.0	5.877
859.2	5.595
859.4	5.524
859.6	5.365
859.8	5.096
860.0	5.172
860.2	4.982
860.4	4.680
860.6	5.014
860.8	4.988
861.0	4.699
861.2	4.501
861.4	4.371
861.6	4.368
861.8	4.670
862.0	4.733
862.2	4.303
862.4	4.335
862.6	4.803
862.8	5.207
863.0	5.054
863.2	4.697
863.4	4.606
863.6	4.534
863.8	4.717
864.0	4.876
864.2	4.628
864.4	4.326
864.6	4.078
864.8	3.706
865.0	3.554
865.2	3.767
865.4	3.921
865.6	4.293
865.8	3.847
866.0	4.106
866.2	4.112
866.4	4.296
866.6	4.068
866.8	3.744
867.0	3.215
867.2	3.825
867.4	4.159
867.6	4.716
867.8	4.663
868.0	4.422
868.2	4.118
868.4	4.281
868.6	3.875
868.8	3.905
869.0	3.987
869.2	4.120
869.4	4.272
869.6	4.655
869.8	4.432
870.0	4.166
870.2	3.968
870.4	3.533
870.6	3.711
870.8	3.573
871.0	3.554
871.2	3.506
871.4	3.660
871.6	3.625
871.8	4.315
872.0	4.349
872.2	4.265
872.4	4.173
872.6	4.123
872.8	3.635
873.0	3.773
873.2	3.866
873.4	3.710
873.6	3.974
873.8	4.143
874.0	3.743
874.2	3.613
874.4	3.249
874.6	3.045
874.8	3.444
875.0	3.552
875.2	3.262
875.4	3.286
875.6	2.948
875.8	3.218
876.0	3.683
876.2	3.608
876.4	3.542
876.6	3.652
876.8	3.623
877.0	3.826
877.2	4.193
877.4	4.276
877.6	4.266
877.8	4.055
878.0	3.664
878.2	3.113
878.4	3.339
878.6	3.483
878.8	3.279
879.0	3.292
879.2	3.414
879.4	3.211
879.6	3.399
879.8	3.301
880.0	3.323
880.2	3.524
880.4	3.816
880.6	3.806
880.8	3.782
881.0	3.395
881.2	3.182
881.4	3.002
881.6	2.998
881.8	3.151
882.0	3.467
882.2	3.465
882.4	3.472
882.6	3.616
882.8	3.439
883.0	3.298
883.2	3.506
883.4	3.526
883.6	3.599
883.8	3.600
884.0	3.465
884.2	3.365
884.4	3.539
884.6	3.510
884.8	3.471
885.0	3.346
885.2	3.358
885.4	3.289
885.6	3.237
885.8	3.077
886.0	3.123
886.2	3.397
886.4	3.646
886.6	3.477
886.8	3.234
887.0	2.803
887.2	2.583
887.4	2.619
887.6	2.883
887.8	3.052
888.0	3.533
888.2	3.627
888.4	4.029
888.6	3.924
888.8	3.559
889.0	3.060
889.2	2.932
889.4	2.710
889.6	3.054
889.8	3.401
890.0	3.295
890.2	3.375
890.4	3.766
890.6	4.144
890.8	4.190
891.0	4.070
891.2	3.243
891.4	3.012
891.6	2.968
891.8	3.287
892.0	3.673
892.2	3.676
892.4	3.340
892.6	3.498
892.8	3.349
893.0	3.924
893.2	4.293
893.4	3.897
893.6	3.549
893.8	3.178
894.0	2.891
894.2	3.094
894.4	3.224
894.6	3.357
894.8	3.541
895.0	3.578
895.2	3.576
895.4	3.169
895.6	3.121
895.8	3.076
896.0	3.064
896.2	3.515
896.4	3.748
896.6	3.926
896.8	4.219
897.0	4.134
897.2	4.067
897.4	3.920
897.6	3.335
897.8	2.881
898.0	2.912
898.2	3.027
898.4	3.056
898.6	2.958
898.8	3.120
899.0	3.444
899.2	3.639
899.4	3.311
899.6	2.669
899.8	2.867
900.0	4.696

