Sample:	'20211010A(EM)
File name:	r-cds 1;X 2.FDS
Run date:	'08:13:04, 03/22/2023
Operator:	Administrator
Comment:	'

Instrument
Model:	F-4700 FL Spectrophotometer
Serial number:	2019-001
ROM Version:	5J24010 00

Instrument parameters
Measurement type:	Wavelength scan
Scan mode:	Emission
Data mode:	Fluorescence
EX WL:	530.0 nm
EM  Start WL:	550.0 nm
EM  End WL:	900.0 nm
Scan speed:	1200 nm/min
Delay:	0.0 s
EX Slit:	10.0 nm
EM Slit:	10.0 nm
PMT Voltage:	800 V
Response:	0.002 s
Corrected spectra:	Off
Shutter control:	On

Processing performed
Savitsky-Golay smoothed
Smoothing order:	3
Number of points:	7
Number of times:	1

Peak integration
Integration method:	Rectangular
Sensitivity:	1
Threshold:	1.000

Peaks
No.	Start(nm)	Apex(nm)	End(nm)	Height(Data)	Valley(nm)	Valley(Data)
1	550.0	554.6	555.6	49.08	555.6	45.33
2	555.6	561.8	562.4	69.07	562.4	63.06
3	562.4	575.4	575.8	142.9	575.8	134.9
4	575.8	577.6	578.4	165.4	578.4	148.9
5	578.4	585.2	586.2	236.7	586.2	226.0
6	586.2	598.2	599.0	342.9	599.0	329.4
7	599.0	600.6	601.6	372.5	601.6	349.9
8	601.6	605.8	606.8	410.5	606.8	395.3
9	606.8	655.4	655.8	2210	655.8	2195
10	655.8	658.0	659.6	2242	659.6	2170
11	659.6	660.0	694.6	2210	694.6	1146
12	694.6	695.4	701.4	1171	701.4	988.9
13	701.4	702.8	714.0	1011	714.0	790.6
14	714.0	714.8	725.0	804.8	725.0	568.2
15	725.0	725.4	746.8	583.9	746.8	268.3
16	746.8	747.4	754.4	286.7	754.4	210.6
17	754.4	755.2	760.8	220.5	760.8	164.6
18	760.8	761.6	767.6	186.0	767.6	132.4
19	767.6	768.6	773.2	143.9	773.2	117.4
20	773.2	773.8	775.4	126.1	775.4	109.5
21	775.4	776.0	785.0	117.8	785.0	88.06
22	785.0	785.8	789.8	91.08	789.8	79.56
23	789.8	790.6	791.8	85.41	791.8	78.07
24	791.8	792.4	796.2	85.76	796.2	71.22
25	796.2	796.8	798.4	75.57	798.4	68.45
26	798.4	799.6	800.6	76.92	800.6	62.45
27	800.6	801.6	802.6	75.02	802.6	66.28
28	802.6	803.4	804.0	72.03	804.0	64.12
29	804.0	805.6	806.6	67.94	806.6	61.19
30	806.6	808.6	812.2	64.51	812.2	49.97
31	812.2	813.2	815.6	58.85	815.6	48.47
32	815.6	817.6	818.6	56.03	818.6	50.04
33	818.6	819.6	822.0	54.92	822.0	45.64
34	822.0	822.6	824.6	50.42	824.6	44.48
35	824.6	825.4	839.6	48.92	839.6	14.29
36	839.6	840.2	843.2	16.66	843.2	9.020
37	843.2	844.0	845.2	13.41	845.2	7.900
38	845.2	846.2	853.2	9.061	853.2	3.346
39	853.2	853.8	855.0	7.606	855.0	3.524
40	855.0	856.2	857.2	5.417	857.2	3.419
41	857.2	857.8	859.6	4.735	859.6	2.744
42	859.6	861.4	866.2	3.810	866.2	1.551
43	866.2	867.2	869.6	4.813	869.6	2.140
44	869.6	872.0	872.8	3.287	872.8	1.664
45	872.8	873.6	874.4	3.146	874.4	1.636
46	874.4	876.2	879.0	3.961	879.0	1.642
47	879.0	881.0	883.0	4.097	883.0	1.823
48	883.0	883.8	887.4	3.587	887.4	1.495
49	887.4	889.2	890.2	3.022	890.2	1.333
50	890.2	892.8	894.6	3.150	894.6	0.775
51	894.6	895.4	897.8	3.784	897.8	1.663

Data points
nm	Data
550.0	41.52
550.2	37.39
550.4	38.60
550.6	42.36
550.8	44.90
551.0	44.76
551.2	43.48
551.4	44.43
551.6	42.99
551.8	43.05
552.0	43.52
552.2	44.36
552.4	44.75
552.6	45.98
552.8	44.74
553.0	43.86
553.2	45.45
553.4	45.79
553.6	45.34
553.8	48.12
554.0	47.61
554.2	48.05
554.4	48.74
554.6	49.08
554.8	46.84
555.0	46.94
555.2	45.63
555.4	45.78
555.6	45.33
555.8	48.89
556.0	49.55
556.2	50.77
556.4	51.64
556.6	48.81
556.8	47.96
557.0	50.88
557.2	53.23
557.4	56.24
557.6	54.78
557.8	52.36
558.0	52.41
558.2	53.23
558.4	57.06
558.6	60.81
558.8	59.95
559.0	60.32
559.2	60.32
559.4	59.21
559.6	63.05
559.8	64.99
560.0	62.94
560.2	61.11
560.4	58.35
560.6	59.56
560.8	64.02
561.0	65.99
561.2	66.76
561.4	68.07
561.6	66.59
561.8	69.07
562.0	67.06
562.2	64.66
562.4	63.06
562.6	66.62
562.8	70.95
563.0	74.92
563.2	74.03
563.4	73.44
563.6	70.04
563.8	72.70
564.0	75.49
564.2	74.87
564.4	74.34
564.6	77.74
564.8	77.03
565.0	81.25
565.2	83.91
565.4	82.71
565.6	81.66
565.8	85.42
566.0	85.08
566.2	85.58
566.4	87.02
566.6	86.05
566.8	85.47
567.0	85.91
567.2	85.25
567.4	84.39
567.6	85.39
567.8	87.07
568.0	90.74
568.2	92.44
568.4	95.04
568.6	94.82
568.8	94.03
569.0	97.75
569.2	100.7
569.4	102.4
569.6	104.7
569.8	101.3
570.0	98.22
570.2	100.5
570.4	101.4
570.6	103.6
570.8	109.4
571.0	108.8
571.2	109.9
571.4	114.1
571.6	114.0
571.8	115.7
572.0	121.1
572.2	122.0
572.4	125.9
572.6	128.7
572.8	124.3
573.0	122.4
573.2	122.0
573.4	123.6
573.6	127.4
573.8	127.4
574.0	126.9
574.2	132.8
574.4	134.0
574.6	136.6
574.8	139.9
575.0	138.1
575.2	138.9
575.4	142.9
575.6	139.1
575.8	134.9
576.0	137.4
576.2	135.6
576.4	144.0
576.6	153.6
576.8	157.1
577.0	155.5
577.2	159.8
577.4	158.4
577.6	165.4
577.8	163.0
578.0	155.9
578.2	149.5
578.4	148.9
578.6	157.8
578.8	169.8
579.0	169.1
579.2	170.5
579.4	171.2
579.6	170.0
579.8	173.4
580.0	172.9
580.2	173.4
580.4	177.0
580.6	182.6
580.8	191.5
581.0	197.7
581.2	196.1
581.4	194.3
581.6	188.8
581.8	187.4
582.0	193.8
582.2	201.0
582.4	201.9
582.6	204.0
582.8	205.5
583.0	208.8
583.2	201.1
583.4	201.5
583.6	204.3
583.8	211.7
584.0	222.2
584.2	225.0
584.4	214.2
584.6	217.1
584.8	224.5
585.0	228.6
585.2	236.7
585.4	234.3
585.6	234.0
585.8	230.5
586.0	231.0
586.2	226.0
586.4	229.2
586.6	232.8
586.8	244.0
587.0	243.8
587.2	248.7
587.4	246.3
587.6	243.9
587.8	240.2
588.0	244.6
588.2	245.5
588.4	250.1
588.6	256.7
588.8	258.6
589.0	261.7
589.2	261.2
589.4	261.3
589.6	258.1
589.8	258.0
590.0	258.5
590.2	264.0
590.4	261.1
590.6	273.8
590.8	281.1
591.0	284.2
591.2	291.6
591.4	291.0
591.6	286.4
591.8	294.8
592.0	295.4
592.2	297.9
592.4	298.1
592.6	299.4
592.8	289.8
593.0	287.5
593.2	290.0
593.4	300.7
593.6	306.6
593.8	316.8
594.0	314.1
594.2	310.7
594.4	307.4
594.6	309.1
594.8	312.1
595.0	313.6
595.2	313.6
595.4	315.1
595.6	315.1
595.8	318.7
596.0	322.1
596.2	323.9
596.4	320.0
596.6	321.5
596.8	323.4
597.0	326.3
597.2	323.1
597.4	326.4
597.6	325.9
597.8	329.2
598.0	338.6
598.2	342.9
598.4	342.3
598.6	339.3
598.8	332.0
599.0	329.4
599.2	332.1
599.4	335.0
599.6	342.3
599.8	347.7
600.0	356.7
600.2	362.4
600.4	367.4
600.6	372.5
600.8	369.0
601.0	363.2
601.2	360.3
601.4	356.4
601.6	349.9
601.8	352.6
602.0	353.9
602.2	362.1
602.4	368.3
602.6	376.1
602.8	376.8
603.0	377.1
603.2	376.1
603.4	377.4
603.6	375.3
603.8	375.5
604.0	379.7
604.2	379.8
604.4	377.6
604.6	380.3
604.8	390.2
605.0	396.2
605.2	401.7
605.4	409.1
605.6	408.5
605.8	410.5
606.0	406.7
606.2	407.1
606.4	403.7
606.6	402.0
606.8	395.3
607.0	397.0
607.2	401.6
607.4	419.8
607.6	431.6
607.8	429.7
608.0	421.8
608.2	417.0
608.4	425.8
608.6	438.4
608.8	448.1
609.0	451.3
609.2	442.4
609.4	433.5
609.6	433.9
609.8	437.5
610.0	446.5
610.2	461.2
610.4	461.7
610.6	455.7
610.8	454.2
611.0	453.8
611.2	461.6
611.4	476.0
611.6	475.0
611.8	472.2
612.0	477.7
612.2	480.4
612.4	486.7
612.6	494.3
612.8	490.5
613.0	495.2
613.2	501.6
613.4	506.1
613.6	506.6
613.8	516.9
614.0	522.5
614.2	523.8
614.4	522.5
614.6	513.2
614.8	511.7
615.0	523.8
615.2	530.9
615.4	537.7
615.6	545.9
615.8	546.3
616.0	547.3
616.2	547.7
616.4	546.3
616.6	560.2
616.8	572.1
617.0	573.8
617.2	573.8
617.4	571.5
617.6	566.9
617.8	587.0
618.0	607.2
618.2	613.6
618.4	623.5
618.6	630.7
618.8	620.3
619.0	621.6
619.2	625.0
619.4	624.4
619.6	630.9
619.8	644.6
620.0	650.6
620.2	657.8
620.4	664.7
620.6	663.7
620.8	664.8
621.0	664.3
621.2	668.3
621.4	683.8
621.6	698.4
621.8	712.9
622.0	719.0
622.2	714.5
622.4	721.1
622.6	735.6
622.8	737.3
623.0	755.3
623.2	748.1
623.4	739.3
623.6	745.8
623.8	764.6
624.0	779.4
624.2	799.5
624.4	799.8
624.6	793.7
624.8	787.1
625.0	796.1
625.2	805.8
625.4	821.6
625.6	830.1
625.8	836.8
626.0	848.0
626.2	855.5
626.4	868.0
626.6	871.9
626.8	868.6
627.0	871.6
627.2	879.7
627.4	891.8
627.6	918.0
627.8	927.8
628.0	939.4
628.2	945.4
628.4	944.7
628.6	948.6
628.8	956.6
629.0	961.4
629.2	984.6
629.4	1007
629.6	1014
629.8	1021
630.0	1019
630.2	1027
630.4	1043
630.6	1058
630.8	1066
631.0	1079
631.2	1083
631.4	1097
631.6	1110
631.8	1125
632.0	1139
632.2	1155
632.4	1167
632.6	1175
632.8	1186
633.0	1202
633.2	1208
633.4	1219
633.6	1236
633.8	1241
634.0	1249
634.2	1268
634.4	1271
634.6	1269
634.8	1280
635.0	1270
635.2	1292
635.4	1327
635.6	1353
635.8	1366
636.0	1387
636.2	1388
636.4	1403
636.6	1419
636.8	1426
637.0	1428
637.2	1442
637.4	1446
637.6	1442
637.8	1464
638.0	1481
638.2	1494
638.4	1528
638.6	1552
638.8	1567
639.0	1578
639.2	1573
639.4	1564
639.6	1576
639.8	1587
640.0	1613
640.2	1623
640.4	1642
640.6	1661
640.8	1676
641.0	1675
641.2	1670
641.4	1673
641.6	1687
641.8	1702
642.0	1721
642.2	1734
642.4	1735
642.6	1741
642.8	1760
643.0	1771
643.2	1797
643.4	1809
643.6	1826
643.8	1824
644.0	1828
644.2	1829
644.4	1851
644.6	1845
644.8	1852
645.0	1869
645.2	1883
645.4	1894
645.6	1912
645.8	1910
646.0	1908
646.2	1924
646.4	1939
646.6	1953
646.8	1952
647.0	1962
647.2	1975
647.4	1981
647.6	1999
647.8	2005
648.0	1998
648.2	2006
648.4	2029
648.6	2044
648.8	2057
649.0	2055
649.2	2061
649.4	2063
649.6	2084
649.8	2095
650.0	2094
650.2	2097
650.4	2090
650.6	2082
650.8	2083
651.0	2090
651.2	2113
651.4	2137
651.6	2143
651.8	2133
652.0	2127
652.2	2126
652.4	2130
652.6	2146
652.8	2150
653.0	2139
653.2	2157
653.4	2178
653.6	2174
653.8	2189
654.0	2188
654.2	2178
654.4	2180
654.6	2202
654.8	2199
655.0	2206
655.2	2209
655.4	2210
655.6	2201
655.8	2195
656.0	2199
656.2	2198
656.4	2220
656.6	2237
656.8	2231
657.0	2221
657.2	2220
657.4	2221
657.6	2231
657.8	2237
658.0	2242
658.2	2237
658.4	2214
658.6	2204
658.8	2196
659.0	2183
659.2	2183
659.4	2178
659.6	2170
659.8	2186
660.0	2210
660.2	2198
660.4	2192
660.6	2179
660.8	2187
661.0	2197
661.2	2195
661.4	2181
661.6	2174
661.8	2165
662.0	2166
662.2	2178
662.4	2174
662.6	2167
662.8	2146
663.0	2133
663.2	2134
663.4	2151
663.6	2154
663.8	2149
664.0	2136
664.2	2126
664.4	2125
664.6	2130
664.8	2123
665.0	2121
665.2	2114
665.4	2098
665.6	2089
665.8	2099
666.0	2108
666.2	2108
666.4	2084
666.6	2055
666.8	2050
667.0	2058
667.2	2047
667.4	2044
667.6	2036
667.8	2027
668.0	2034
668.2	2054
668.4	2045
668.6	2041
668.8	2035
669.0	2008
669.2	1995
669.4	1997
669.6	1999
669.8	1989
670.0	1977
670.2	1962
670.4	1942
670.6	1941
670.8	1945
671.0	1944
671.2	1943
671.4	1930
671.6	1905
671.8	1897
672.0	1889
672.2	1882
672.4	1879
672.6	1865
672.8	1870
673.0	1869
673.2	1869
673.4	1850
673.6	1845
673.8	1827
674.0	1825
674.2	1823
674.4	1815
674.6	1799
674.8	1805
675.0	1800
675.2	1795
675.4	1788
675.6	1773
675.8	1749
676.0	1728
676.2	1723
676.4	1731
676.6	1746
676.8	1766
677.0	1763
677.2	1741
677.4	1709
677.6	1685
677.8	1658
678.0	1661
678.2	1667
678.4	1668
678.6	1659
678.8	1653
679.0	1642
679.2	1644
679.4	1638
679.6	1629
679.8	1617
680.0	1610
680.2	1601
680.4	1603
680.6	1590
680.8	1579
681.0	1570
681.2	1565
681.4	1564
681.6	1574
681.8	1571
682.0	1569
682.2	1559
682.4	1549
682.6	1536
682.8	1529
683.0	1518
683.2	1515
683.4	1507
683.6	1497
683.8	1499
684.0	1504
684.2	1488
684.4	1481
684.6	1474
684.8	1457
685.0	1461
685.2	1461
685.4	1447
685.6	1426
685.8	1415
686.0	1405
686.2	1403
686.4	1389
686.6	1382
686.8	1380
687.0	1380
687.2	1393
687.4	1393
687.6	1370
687.8	1346
688.0	1336
688.2	1317
688.4	1321
688.6	1316
688.8	1325
689.0	1332
689.2	1331
689.4	1318
689.6	1293
689.8	1268
690.0	1256
690.2	1255
690.4	1249
690.6	1260
690.8	1268
691.0	1265
691.2	1260
691.4	1254
691.6	1234
691.8	1231
692.0	1230
692.2	1223
692.4	1234
692.6	1233
692.8	1220
693.0	1207
693.2	1196
693.4	1183
693.6	1178
693.8	1179
694.0	1166
694.2	1153
694.4	1154
694.6	1146
694.8	1148
695.0	1164
695.2	1168
695.4	1171
695.6	1159
695.8	1146
696.0	1126
696.2	1118
696.4	1118
696.6	1126
696.8	1119
697.0	1119
697.2	1111
697.4	1106
697.6	1100
697.8	1088
698.0	1080
698.2	1075
698.4	1067
698.6	1065
698.8	1062
699.0	1064
699.2	1063
699.4	1058
699.6	1040
699.8	1039
700.0	1042
700.2	1049
700.4	1041
700.6	1030
700.8	1016
701.0	999.7
701.2	994.0
701.4	988.9
701.6	991.6
701.8	991.3
702.0	999.1
702.2	996.2
702.4	996.9
702.6	993.4
702.8	1011
703.0	1005
703.2	1002
703.4	994.7
703.6	980.3
703.8	966.5
704.0	976.5
704.2	976.6
704.4	969.0
704.6	964.0
704.8	958.9
705.0	955.5
705.2	957.3
705.4	957.2
705.6	939.0
705.8	931.9
706.0	929.2
706.2	928.8
706.4	927.3
706.6	931.2
706.8	919.0
707.0	913.6
707.2	911.7
707.4	913.0
707.6	911.1
707.8	913.0
708.0	901.7
708.2	894.8
708.4	880.4
708.6	884.8
708.8	880.8
709.0	871.6
709.2	864.3
709.4	865.7
709.6	868.2
709.8	877.3
710.0	876.8
710.2	870.3
710.4	862.8
710.6	861.7
710.8	860.2
711.0	850.4
711.2	841.0
711.4	827.2
711.6	819.5
711.8	825.8
712.0	831.7
712.2	834.1
712.4	831.2
712.6	818.0
712.8	802.5
713.0	803.9
713.2	794.4
713.4	794.9
713.6	800.8
713.8	800.0
714.0	790.6
714.2	792.2
714.4	796.0
714.6	801.5
714.8	804.8
715.0	794.9
715.2	778.8
715.4	762.5
715.6	770.7
715.8	760.5
716.0	759.3
716.2	753.9
716.4	749.2
716.6	744.4
716.8	753.1
717.0	747.9
717.2	738.5
717.4	729.0
717.6	723.3
717.8	725.0
718.0	717.5
718.2	714.6
718.4	701.8
718.6	696.2
718.8	691.9
719.0	699.8
719.2	693.2
719.4	693.5
719.6	690.0
719.8	683.9
720.0	675.2
720.2	673.1
720.4	672.6
720.6	673.2
720.8	671.2
721.0	668.1
721.2	661.3
721.4	642.9
721.6	632.9
721.8	631.1
722.0	626.8
722.2	634.3
722.4	635.9
722.6	635.6
722.8	629.2
723.0	621.4
723.2	621.7
723.4	631.4
723.6	629.0
723.8	629.1
724.0	616.3
724.2	606.0
724.4	598.7
724.6	587.6
724.8	576.2
725.0	568.2
725.2	568.9
725.4	583.9
725.6	579.6
725.8	577.1
726.0	580.7
726.2	576.2
726.4	570.3
726.6	564.9
726.8	544.7
727.0	532.7
727.2	528.1
727.4	528.8
727.6	528.7
727.8	528.4
728.0	532.0
728.2	526.0
728.4	522.4
728.6	524.3
728.8	525.7
729.0	527.8
729.2	523.6
729.4	504.7
729.6	491.7
729.8	487.4
730.0	493.3
730.2	499.8
730.4	499.7
730.6	491.5
730.8	485.6
731.0	480.1
731.2	476.7
731.4	474.2
731.6	475.9
731.8	475.4
732.0	473.9
732.2	467.6
732.4	458.7
732.6	456.4
732.8	454.6
733.0	458.0
733.2	452.3
733.4	448.3
733.6	445.6
733.8	442.4
734.0	444.1
734.2	444.5
734.4	445.0
734.6	444.1
734.8	439.0
735.0	424.0
735.2	412.3
735.4	398.8
735.6	406.1
735.8	413.0
736.0	420.1
736.2	417.8
736.4	411.5
736.6	402.3
736.8	399.6
737.0	394.7
737.2	400.0
737.4	399.9
737.6	400.9
737.8	401.3
738.0	393.8
738.2	389.3
738.4	387.8
738.6	382.1
738.8	373.1
739.0	372.6
739.2	362.7
739.4	367.7
739.6	366.4
739.8	363.6
740.0	359.0
740.2	356.0
740.4	352.0
740.6	352.1
740.8	352.0
741.0	349.9
741.2	349.6
741.4	344.5
741.6	346.0
741.8	343.8
742.0	346.0
742.2	341.3
742.4	337.2
742.6	327.4
742.8	322.3
743.0	318.4
743.2	316.6
743.4	317.5
743.6	319.0
743.8	316.9
744.0	315.3
744.2	315.5
744.4	309.3
744.6	310.2
744.8	305.6
745.0	306.2
745.2	304.2
745.4	310.0
745.6	308.2
745.8	306.5
746.0	302.7
746.2	294.2
746.4	278.8
746.6	271.3
746.8	268.3
747.0	271.6
747.2	286.1
747.4	286.7
747.6	281.5
747.8	277.1
748.0	273.8
748.2	275.2
748.4	282.7
748.6	281.1
748.8	276.4
749.0	265.6
749.2	258.9
749.4	255.5
749.6	252.8
749.8	249.9
750.0	252.8
750.2	251.2
750.4	250.3
750.6	249.2
750.8	245.7
751.0	243.7
751.2	245.8
751.4	241.1
751.6	243.2
751.8	246.3
752.0	246.4
752.2	239.7
752.4	237.0
752.6	231.9
752.8	237.0
753.0	245.6
753.2	245.0
753.4	237.8
753.6	233.5
753.8	227.8
754.0	220.1
754.2	217.7
754.4	210.6
754.6	216.8
754.8	217.7
755.0	220.2
755.2	220.5
755.4	218.9
755.6	215.5
755.8	217.3
756.0	214.5
756.2	211.3
756.4	205.6
756.6	207.1
756.8	205.9
757.0	199.2
757.2	201.6
757.4	199.3
757.6	192.5
757.8	196.6
758.0	194.3
758.2	191.6
758.4	197.8
758.6	196.8
758.8	191.8
759.0	188.1
759.2	181.3
759.4	182.3
759.6	179.3
759.8	181.1
760.0	179.0
760.2	177.2
760.4	171.3
760.6	170.3
760.8	164.6
761.0	167.1
761.2	174.3
761.4	183.4
761.6	186.0
761.8	182.2
762.0	176.5
762.2	168.9
762.4	169.1
762.6	171.1
762.8	172.9
763.0	167.6
763.2	166.3
763.4	162.5
763.6	161.1
763.8	162.7
764.0	166.8
764.2	167.1
764.4	167.1
764.6	161.3
764.8	153.7
765.0	150.5
765.2	154.4
765.4	155.7
765.6	153.1
765.8	145.4
766.0	142.9
766.2	141.9
766.4	143.9
766.6	148.7
766.8	146.1
767.0	139.4
767.2	138.9
767.4	138.0
767.6	132.4
767.8	136.2
768.0	137.5
768.2	139.3
768.4	142.1
768.6	143.9
768.8	138.2
769.0	136.4
769.2	136.4
769.4	135.1
769.6	131.3
769.8	130.1
770.0	130.9
770.2	132.4
770.4	132.0
770.6	128.6
770.8	122.9
771.0	122.6
771.2	126.3
771.4	128.1
771.6	128.5
771.8	126.1
772.0	123.0
772.2	122.4
772.4	122.1
772.6	121.7
772.8	121.3
773.0	119.8
773.2	117.4
773.4	119.7
773.6	123.4
773.8	126.1
774.0	124.1
774.2	120.5
774.4	116.9
774.6	114.8
774.8	115.3
775.0	114.8
775.2	110.2
775.4	109.5
775.6	114.7
775.8	115.8
776.0	117.8
776.2	116.2
776.4	109.4
776.6	105.5
776.8	106.5
777.0	106.9
777.2	109.3
777.4	108.9
777.6	107.4
777.8	108.1
778.0	107.4
778.2	105.0
778.4	105.9
778.6	105.9
778.8	103.0
779.0	101.3
779.2	98.54
779.4	97.44
779.6	100.8
779.8	104.3
780.0	103.5
780.2	98.68
780.4	96.15
780.6	96.37
780.8	99.73
781.0	101.5
781.2	101.8
781.4	98.03
781.6	93.95
781.8	91.95
782.0	92.65
782.2	89.84
782.4	93.85
782.6	94.65
782.8	93.31
783.0	92.81
783.2	93.97
783.4	89.42
783.6	90.19
783.8	87.31
784.0	86.18
784.2	89.12
784.4	92.17
784.6	91.66
784.8	89.77
785.0	88.06
785.2	89.34
785.4	88.77
785.6	89.56
785.8	91.08
786.0	90.25
786.2	90.73
786.4	90.65
786.6	87.57
786.8	86.80
787.0	85.12
787.2	84.11
787.4	83.93
787.6	84.09
787.8	86.80
788.0	86.50
788.2	83.72
788.4	83.26
788.6	83.64
788.8	86.31
789.0	87.90
789.2	84.72
789.4	81.27
789.6	79.75
789.8	79.56
790.0	82.05
790.2	82.56
790.4	83.45
790.6	85.41
790.8	84.48
791.0	83.35
791.2	82.69
791.4	81.04
791.6	78.10
791.8	78.07
792.0	80.92
792.2	83.56
792.4	85.76
792.6	85.14
792.8	80.78
793.0	77.84
793.2	78.59
793.4	78.03
793.6	78.49
793.8	78.88
794.0	81.02
794.2	80.15
794.4	77.91
794.6	77.88
794.8	78.15
795.0	75.65
795.2	76.76
795.4	78.36
795.6	75.68
795.8	73.67
796.0	72.93
796.2	71.22
796.4	71.77
796.6	75.37
796.8	75.57
797.0	72.12
797.2	71.45
797.4	72.96
797.6	74.69
797.8	75.54
798.0	75.25
798.2	70.39
798.4	68.45
798.6	69.51
798.8	70.91
799.0	74.20
799.2	75.81
799.4	76.19
799.6	76.92
799.8	75.61
800.0	70.95
800.2	67.59
800.4	65.35
800.6	62.45
800.8	63.98
801.0	66.03
801.2	71.40
801.4	72.25
801.6	75.02
801.8	70.87
802.0	70.80
802.2	69.28
802.4	68.81
802.6	66.28
802.8	67.51
803.0	68.71
803.2	71.19
803.4	72.03
803.6	70.48
803.8	66.11
804.0	64.12
804.2	65.95
804.4	65.75
804.6	65.91
804.8	67.72
805.0	65.54
805.2	65.77
805.4	67.32
805.6	67.94
805.8	65.74
806.0	63.80
806.2	62.49
806.4	61.46
806.6	61.19
806.8	62.71
807.0	62.80
807.2	62.93
807.4	63.42
807.6	63.12
807.8	63.13
808.0	63.50
808.2	63.60
808.4	64.43
808.6	64.51
808.8	64.30
809.0	63.50
809.2	62.23
809.4	61.90
809.6	62.20
809.8	61.68
810.0	59.87
810.2	57.53
810.4	55.71
810.6	55.44
810.8	55.49
811.0	55.80
811.2	57.38
811.4	55.81
811.6	57.09
811.8	55.37
812.0	53.05
812.2	49.97
812.4	51.51
812.6	50.83
812.8	56.09
813.0	57.41
813.2	58.85
813.4	56.22
813.6	54.84
813.8	51.70
814.0	54.44
814.2	53.80
814.4	55.74
814.6	54.98
814.8	54.27
815.0	52.10
815.2	52.60
815.4	51.12
815.6	48.47
815.8	49.15
816.0	50.46
816.2	50.79
816.4	52.31
816.6	53.75
816.8	51.55
817.0	53.91
817.2	55.64
817.4	55.54
817.6	56.03
817.8	54.57
818.0	50.20
818.2	50.88
818.4	51.28
818.6	50.04
818.8	50.24
819.0	51.50
819.2	51.58
819.4	53.80
819.6	54.92
819.8	51.82
820.0	48.71
820.2	47.13
820.4	46.79
820.6	46.51
820.8	49.00
821.0	48.76
821.2	48.64
821.4	48.77
821.6	46.96
821.8	45.73
822.0	45.64
822.2	46.69
822.4	49.29
822.6	50.42
822.8	50.01
823.0	48.12
823.2	46.29
823.4	45.62
823.6	45.49
823.8	45.01
824.0	46.09
824.2	44.94
824.4	44.84
824.6	44.48
824.8	44.66
825.0	46.66
825.2	46.30
825.4	48.92
825.6	48.57
825.8	46.55
826.0	44.54
826.2	42.99
826.4	41.63
826.6	43.92
826.8	42.76
827.0	42.56
827.2	41.11
827.4	41.75
827.6	42.80
827.8	42.65
828.0	41.64
828.2	41.72
828.4	40.51
828.6	42.19
828.8	41.57
829.0	38.64
829.2	37.29
829.4	37.66
829.6	38.02
829.8	40.09
830.0	40.88
830.2	38.40
830.4	38.70
830.6	37.52
830.8	36.84
831.0	35.87
831.2	34.36
831.4	32.66
831.6	32.61
831.8	32.06
832.0	31.75
832.2	30.16
832.4	28.65
832.6	28.48
832.8	29.92
833.0	31.38
833.2	29.19
833.4	29.78
833.6	29.07
833.8	26.73
834.0	26.18
834.2	25.75
834.4	24.96
834.6	25.85
834.8	26.05
835.0	23.04
835.2	19.82
835.4	19.88
835.6	21.74
835.8	21.11
836.0	23.08
836.2	22.05
836.4	21.07
836.6	20.93
836.8	20.13
837.0	18.75
837.2	19.25
837.4	18.39
837.6	18.13
837.8	16.52
838.0	15.61
838.2	16.13
838.4	16.31
838.6	16.21
838.8	15.46
839.0	14.98
839.2	14.67
839.4	14.42
839.6	14.29
839.8	14.52
840.0	15.29
840.2	16.66
840.4	16.48
840.6	15.12
840.8	14.33
841.0	13.02
841.2	12.98
841.4	12.41
841.6	12.38
841.8	11.94
842.0	10.65
842.2	10.60
842.4	12.27
842.6	12.00
842.8	11.98
843.0	11.22
843.2	9.020
843.4	9.718
843.6	11.37
843.8	12.76
844.0	13.41
844.2	12.70
844.4	11.78
844.6	10.99
844.8	9.290
845.0	8.789
845.2	7.900
845.4	8.281
845.6	8.455
845.8	8.259
846.0	8.200
846.2	9.061
846.4	8.634
846.6	8.812
846.8	7.844
847.0	7.711
847.2	7.758
847.4	8.017
847.6	7.658
847.8	7.965
848.0	7.681
848.2	8.346
848.4	7.596
848.6	7.034
848.8	7.042
849.0	6.585
849.2	6.052
849.4	6.368
849.6	7.589
849.8	8.239
850.0	7.701
850.2	6.138
850.4	5.478
850.6	5.960
850.8	7.440
851.0	7.953
851.2	6.882
851.4	5.707
851.6	5.366
851.8	5.516
852.0	5.450
852.2	6.223
852.4	6.455
852.6	5.938
852.8	5.222
853.0	4.158
853.2	3.346
853.4	4.446
853.6	6.468
853.8	7.606
854.0	7.565
854.2	7.426
854.4	6.063
854.6	4.929
854.8	4.050
855.0	3.524
855.2	3.825
855.4	4.778
855.6	5.114
855.8	5.416
856.0	5.236
856.2	5.417
856.4	5.205
856.6	4.761
856.8	4.023
857.0	3.681
857.2	3.419
857.4	3.493
857.6	4.008
857.8	4.735
858.0	4.275
858.2	3.836
858.4	3.704
858.6	3.431
858.8	4.068
859.0	3.637
859.2	3.000
859.4	2.749
859.6	2.744
859.8	2.892
860.0	3.156
860.2	2.919
860.4	3.123
860.6	3.235
860.8	2.857
861.0	3.399
861.2	3.679
861.4	3.810
861.6	3.753
861.8	3.264
862.0	2.430
862.2	3.266
862.4	3.475
862.6	3.224
862.8	3.072
863.0	2.738
863.2	2.198
863.4	3.525
863.6	3.376
863.8	3.136
864.0	2.790
864.2	2.511
864.4	2.523
864.6	3.251
864.8	2.551
865.0	2.754
865.2	2.982
865.4	2.801
865.6	3.030
865.8	2.962
866.0	1.987
866.2	1.551
866.4	1.774
866.6	2.431
866.8	3.258
867.0	4.343
867.2	4.813
867.4	3.866
867.6	2.816
867.8	2.791
868.0	2.561
868.2	3.243
868.4	3.367
868.6	2.812
868.8	2.286
869.0	2.294
869.2	2.253
869.4	2.465
869.6	2.140
869.8	2.316
870.0	2.438
870.2	2.891
870.4	2.830
870.6	2.910
870.8	2.639
871.0	2.803
871.2	2.949
871.4	2.927
871.6	2.712
871.8	3.237
872.0	3.287
872.2	3.067
872.4	3.211
872.6	2.320
872.8	1.664
873.0	1.902
873.2	1.882
873.4	2.481
873.6	3.146
873.8	2.913
874.0	2.764
874.2	2.047
874.4	1.636
874.6	2.398
874.8	2.832
875.0	2.733
875.2	2.770
875.4	2.073
875.6	2.336
875.8	3.264
876.0	3.802
876.2	3.961
876.4	3.910
876.6	2.957
876.8	2.391
877.0	2.588
877.2	2.535
877.4	2.967
877.6	3.188
877.8	2.458
878.0	2.129
878.2	2.142
878.4	1.976
878.6	2.316
878.8	2.231
879.0	1.642
879.2	1.945
879.4	2.166
879.6	2.907
879.8	3.564
880.0	3.410
880.2	2.208
880.4	2.436
880.6	3.065
880.8	3.797
881.0	4.097
881.2	3.739
881.4	2.069
881.6	1.991
881.8	2.368
882.0	2.798
882.2	3.421
882.4	3.539
882.6	2.923
882.8	2.390
883.0	1.823
883.2	2.162
883.4	2.371
883.6	3.113
883.8	3.587
884.0	3.132
884.2	2.727
884.4	2.221
884.6	2.236
884.8	2.853
885.0	2.793
885.2	2.870
885.4	3.024
885.6	2.687
885.8	2.832
886.0	2.988
886.2	1.961
886.4	2.432
886.6	2.686
886.8	2.632
887.0	2.371
887.2	2.258
887.4	1.495
887.6	1.578
887.8	1.842
888.0	2.034
888.2	1.858
888.4	1.549
888.6	1.933
888.8	2.047
889.0	2.475
889.2	3.022
889.4	2.607
889.6	2.279
889.8	2.020
890.0	1.822
890.2	1.333
890.4	1.708
890.6	1.935
890.8	2.468
891.0	2.319
891.2	2.551
891.4	2.079
891.6	2.673
891.8	2.840
892.0	3.076
892.2	3.080
892.4	2.930
892.6	2.858
892.8	3.150
893.0	2.737
893.2	2.735
893.4	2.746
893.6	2.531
893.8	2.373
894.0	2.561
894.2	1.946
894.4	1.361
894.6	0.775
894.8	0.960
895.0	1.691
895.2	3.412
895.4	3.784
895.6	3.016
895.8	2.134
896.0	2.051
896.2	2.395
896.4	3.329
896.6	3.271
896.8	2.432
897.0	2.096
897.2	1.900
897.4	1.728
897.6	1.782
897.8	1.663
898.0	1.962
898.2	1.890
898.4	2.224
898.6	2.602
898.8	2.881
899.0	2.992
899.2	3.392
899.4	2.883
899.6	2.784
899.8	2.926
900.0	3.411

