Sample:	'20211010A(EM)
File name:	r-NI-cds 1;15 600V.FDS
Run date:	'08:28:54, 03/22/2023
Operator:	Administrator
Comment:	'

Instrument
Model:	F-4700 FL Spectrophotometer
Serial number:	2019-001
ROM Version:	5J24010 00

Instrument parameters
Measurement type:	Wavelength scan
Scan mode:	Emission
Data mode:	Fluorescence
EX WL:	530.0 nm
EM  Start WL:	550.0 nm
EM  End WL:	900.0 nm
Scan speed:	1200 nm/min
Delay:	0.0 s
EX Slit:	10.0 nm
EM Slit:	10.0 nm
PMT Voltage:	600 V
Response:	0.002 s
Corrected spectra:	Off
Shutter control:	On

Processing performed
Savitsky-Golay smoothed
Smoothing order:	3
Number of points:	7
Number of times:	1

Peak integration
Integration method:	Rectangular
Sensitivity:	1
Threshold:	1.000

Peaks
No.	Start(nm)	Apex(nm)	End(nm)	Height(Data)	Valley(nm)	Valley(Data)
1	550.0	610.8	611.6	6789	611.6	6765
2	611.6	614.2	792.6	6800	792.6	55.48
3	792.6	793.6	796.0	57.34	796.0	51.91
4	796.0	796.8	804.2	53.79	804.2	43.42
5	804.2	805.0	808.4	45.83	808.4	38.43
6	808.4	809.2	812.2	41.61	812.2	36.35
7	812.2	813.0	900.0	38.69	900.0	1.980

Data points
nm	Data
550.0	642.9
550.2	653.2
550.4	662.9
550.6	672.6
550.8	683.4
551.0	696.8
551.2	706.4
551.4	716.8
551.6	723.2
551.8	738.4
552.0	751.1
552.2	765.5
552.4	773.5
552.6	785.5
552.8	793.5
553.0	807.4
553.2	818.1
553.4	832.4
553.6	840.6
553.8	856.6
554.0	867.9
554.2	880.2
554.4	894.3
554.6	909.0
554.8	919.6
555.0	933.2
555.2	942.9
555.4	957.1
555.6	973.2
555.8	984.5
556.0	999.2
556.2	1010
556.4	1024
556.6	1043
556.8	1057
557.0	1069
557.2	1085
557.4	1098
557.6	1116
557.8	1131
558.0	1144
558.2	1161
558.4	1178
558.6	1197
558.8	1218
559.0	1229
559.2	1246
559.4	1261
559.6	1270
559.8	1286
560.0	1310
560.2	1329
560.4	1352
560.6	1373
560.8	1385
561.0	1399
561.2	1413
561.4	1430
561.6	1449
561.8	1474
562.0	1499
562.2	1517
562.4	1533
562.6	1553
562.8	1567
563.0	1587
563.2	1612
563.4	1628
563.6	1650
563.8	1670
564.0	1685
564.2	1707
564.4	1728
564.6	1745
564.8	1767
565.0	1791
565.2	1816
565.4	1840
565.6	1859
565.8	1878
566.0	1895
566.2	1915
566.4	1939
566.6	1966
566.8	1989
567.0	2019
567.2	2046
567.4	2064
567.6	2084
567.8	2101
568.0	2115
568.2	2137
568.4	2163
568.6	2193
568.8	2218
569.0	2247
569.2	2267
569.4	2285
569.6	2305
569.8	2329
570.0	2352
570.2	2381
570.4	2408
570.6	2430
570.8	2454
571.0	2482
571.2	2513
571.4	2542
571.6	2572
571.8	2597
572.0	2620
572.2	2645
572.4	2672
572.6	2701
572.8	2728
573.0	2753
573.2	2773
573.4	2794
573.6	2816
573.8	2841
574.0	2868
574.2	2896
574.4	2919
574.6	2947
574.8	2980
575.0	3007
575.2	3038
575.4	3068
575.6	3095
575.8	3120
576.0	3150
576.2	3176
576.4	3207
576.6	3232
576.8	3264
577.0	3298
577.2	3323
577.4	3350
577.6	3378
577.8	3403
578.0	3428
578.2	3453
578.4	3481
578.6	3509
578.8	3540
579.0	3576
579.2	3603
579.4	3628
579.6	3661
579.8	3697
580.0	3729
580.2	3748
580.4	3767
580.6	3782
580.8	3805
581.0	3848
581.2	3891
581.4	3920
581.6	3948
581.8	3962
582.0	3987
582.2	4021
582.4	4055
582.6	4084
582.8	4105
583.0	4131
583.2	4156
583.4	4191
583.6	4234
583.8	4273
584.0	4302
584.2	4336
584.4	4360
584.6	4383
584.8	4407
585.0	4432
585.2	4456
585.4	4483
585.6	4515
585.8	4552
586.0	4587
586.2	4618
586.4	4633
586.6	4644
586.8	4655
587.0	4687
587.2	4727
587.4	4771
587.6	4801
587.8	4831
588.0	4855
588.2	4879
588.4	4902
588.6	4926
588.8	4947
589.0	4976
589.2	5006
589.4	5032
589.6	5060
589.8	5084
590.0	5113
590.2	5148
590.4	5176
590.6	5199
590.8	5222
591.0	5251
591.2	5279
591.4	5311
591.6	5334
591.8	5349
592.0	5372
592.2	5402
592.4	5438
592.6	5471
592.8	5490
593.0	5506
593.2	5526
593.4	5549
593.6	5579
593.8	5607
594.0	5629
594.2	5648
594.4	5659
594.6	5679
594.8	5702
595.0	5731
595.2	5759
595.4	5779
595.6	5797
595.8	5814
596.0	5841
596.2	5870
596.4	5899
596.6	5915
596.8	5939
597.0	5949
597.2	5966
597.4	5983
597.6	6008
597.8	6034
598.0	6065
598.2	6085
598.4	6103
598.6	6115
598.8	6139
599.0	6169
599.2	6190
599.4	6200
599.6	6214
599.8	6230
600.0	6240
600.2	6255
600.4	6272
600.6	6283
600.8	6308
601.0	6335
601.2	6348
601.4	6374
601.6	6389
601.8	6400
602.0	6415
602.2	6422
602.4	6429
602.6	6455
602.8	6465
603.0	6476
603.2	6494
603.4	6503
603.6	6514
603.8	6536
604.0	6542
604.2	6535
604.4	6541
604.6	6552
604.8	6559
605.0	6578
605.2	6590
605.4	6597
605.6	6611
605.8	6622
606.0	6626
606.2	6640
606.4	6652
606.6	6669
606.8	6685
607.0	6692
607.2	6689
607.4	6693
607.6	6700
607.8	6704
608.0	6713
608.2	6716
608.4	6710
608.6	6722
608.8	6738
609.0	6748
609.2	6757
609.4	6757
609.6	6762
609.8	6755
610.0	6749
610.2	6751
610.4	6752
610.6	6766
610.8	6789
611.0	6785
611.2	6784
611.4	6771
611.6	6765
611.8	6774
612.0	6776
612.2	6775
612.4	6771
612.6	6767
612.8	6776
613.0	6789
613.2	6788
613.4	6783
613.6	6783
613.8	6788
614.0	6791
614.2	6800
614.4	6790
614.6	6783
614.8	6777
615.0	6767
615.2	6760
615.4	6760
615.6	6765
615.8	6775
616.0	6776
616.2	6772
616.4	6763
616.6	6756
616.8	6744
617.0	6736
617.2	6725
617.4	6723
617.6	6717
617.8	6716
618.0	6711
618.2	6709
618.4	6701
618.6	6699
618.8	6679
619.0	6658
619.2	6652
619.4	6640
619.6	6639
619.8	6633
620.0	6623
620.2	6620
620.4	6616
620.6	6610
620.8	6611
621.0	6606
621.2	6600
621.4	6589
621.6	6570
621.8	6560
622.0	6549
622.2	6539
622.4	6524
622.6	6509
622.8	6497
623.0	6489
623.2	6473
623.4	6461
623.6	6449
623.8	6441
624.0	6429
624.2	6418
624.4	6410
624.6	6407
624.8	6409
625.0	6392
625.2	6373
625.4	6357
625.6	6340
625.8	6326
626.0	6326
626.2	6305
626.4	6288
626.6	6272
626.8	6249
627.0	6237
627.2	6234
627.4	6220
627.6	6200
627.8	6181
628.0	6164
628.2	6158
628.4	6148
628.6	6129
628.8	6109
629.0	6081
629.2	6070
629.4	6069
629.6	6062
629.8	6043
630.0	6028
630.2	5994
630.4	5968
630.6	5957
630.8	5944
631.0	5934
631.2	5929
631.4	5910
631.6	5891
631.8	5869
632.0	5838
632.2	5810
632.4	5787
632.6	5767
632.8	5758
633.0	5736
633.2	5734
633.4	5713
633.6	5697
633.8	5679
634.0	5657
634.2	5631
634.4	5633
634.6	5616
634.8	5593
635.0	5567
635.2	5547
635.4	5530
635.6	5525
635.8	5507
636.0	5484
636.2	5467
636.4	5453
636.6	5433
636.8	5414
637.0	5383
637.2	5362
637.4	5336
637.6	5324
637.8	5306
638.0	5304
638.2	5292
638.4	5280
638.6	5257
638.8	5241
639.0	5217
639.2	5211
639.4	5191
639.6	5183
639.8	5160
640.0	5123
640.2	5097
640.4	5083
640.6	5074
640.8	5063
641.0	5034
641.2	5000
641.4	4977
641.6	4959
641.8	4955
642.0	4933
642.2	4916
642.4	4889
642.6	4863
642.8	4842
643.0	4828
643.2	4806
643.4	4788
643.6	4760
643.8	4737
644.0	4721
644.2	4707
644.4	4703
644.6	4689
644.8	4670
645.0	4648
645.2	4629
645.4	4604
645.6	4579
645.8	4562
646.0	4539
646.2	4519
646.4	4506
646.6	4489
646.8	4466
647.0	4454
647.2	4429
647.4	4413
647.6	4397
647.8	4383
648.0	4369
648.2	4356
648.4	4334
648.6	4317
648.8	4301
649.0	4276
649.2	4259
649.4	4242
649.6	4216
649.8	4193
650.0	4182
650.2	4157
650.4	4144
650.6	4125
650.8	4106
651.0	4086
651.2	4064
651.4	4039
651.6	4024
651.8	4004
652.0	3993
652.2	3979
652.4	3966
652.6	3946
652.8	3929
653.0	3896
653.2	3878
653.4	3865
653.6	3857
653.8	3841
654.0	3825
654.2	3787
654.4	3770
654.6	3751
654.8	3734
655.0	3722
655.2	3702
655.4	3686
655.6	3672
655.8	3654
656.0	3639
656.2	3622
656.4	3601
656.6	3590
656.8	3578
657.0	3560
657.2	3539
657.4	3519
657.6	3497
657.8	3475
658.0	3469
658.2	3447
658.4	3430
658.6	3415
658.8	3401
659.0	3383
659.2	3371
659.4	3346
659.6	3332
659.8	3317
660.0	3305
660.2	3290
660.4	3276
660.6	3253
660.8	3233
661.0	3221
661.2	3207
661.4	3192
661.6	3180
661.8	3159
662.0	3139
662.2	3124
662.4	3118
662.6	3104
662.8	3086
663.0	3061
663.2	3037
663.4	3018
663.6	3012
663.8	3001
664.0	2992
664.2	2972
664.4	2960
664.6	2947
664.8	2929
665.0	2912
665.2	2904
665.4	2885
665.6	2868
665.8	2845
666.0	2832
666.2	2819
666.4	2809
666.6	2798
666.8	2774
667.0	2760
667.2	2744
667.4	2729
667.6	2712
667.8	2697
668.0	2680
668.2	2670
668.4	2653
668.6	2641
668.8	2631
669.0	2625
669.2	2619
669.4	2602
669.6	2581
669.8	2558
670.0	2544
670.2	2529
670.4	2516
670.6	2499
670.8	2484
671.0	2477
671.2	2467
671.4	2451
671.6	2443
671.8	2429
672.0	2410
672.2	2396
672.4	2375
672.6	2357
672.8	2349
673.0	2341
673.2	2335
673.4	2326
673.6	2309
673.8	2291
674.0	2281
674.2	2266
674.4	2256
674.6	2241
674.8	2223
675.0	2210
675.2	2204
675.4	2192
675.6	2178
675.8	2166
676.0	2156
676.2	2146
676.4	2135
676.6	2122
676.8	2106
677.0	2094
677.2	2080
677.4	2068
677.6	2054
677.8	2039
678.0	2031
678.2	2024
678.4	2015
678.6	2008
678.8	1994
679.0	1978
679.2	1968
679.4	1957
679.6	1943
679.8	1933
680.0	1919
680.2	1905
680.4	1897
680.6	1883
680.8	1863
681.0	1851
681.2	1837
681.4	1825
681.6	1819
681.8	1815
682.0	1812
682.2	1808
682.4	1795
682.6	1780
682.8	1765
683.0	1752
683.2	1744
683.4	1738
683.6	1731
683.8	1727
684.0	1712
684.2	1700
684.4	1682
684.6	1674
684.8	1669
685.0	1665
685.2	1651
685.4	1644
685.6	1629
685.8	1621
686.0	1612
686.2	1603
686.4	1588
686.6	1575
686.8	1568
687.0	1565
687.2	1560
687.4	1553
687.6	1539
687.8	1522
688.0	1518
688.2	1514
688.4	1506
688.6	1495
688.8	1478
689.0	1467
689.2	1464
689.4	1458
689.6	1453
689.8	1448
690.0	1434
690.2	1426
690.4	1418
690.6	1408
690.8	1396
691.0	1389
691.2	1378
691.4	1370
691.6	1366
691.8	1362
692.0	1353
692.2	1343
692.4	1329
692.6	1325
692.8	1323
693.0	1319
693.2	1313
693.4	1301
693.6	1288
693.8	1287
694.0	1282
694.2	1274
694.4	1267
694.6	1261
694.8	1254
695.0	1248
695.2	1238
695.4	1225
695.6	1215
695.8	1207
696.0	1200
696.2	1197
696.4	1195
696.6	1190
696.8	1184
697.0	1180
697.2	1171
697.4	1165
697.6	1156
697.8	1145
698.0	1138
698.2	1134
698.4	1129
698.6	1125
698.8	1118
699.0	1115
699.2	1116
699.4	1107
699.6	1101
699.8	1093
700.0	1085
700.2	1082
700.4	1076
700.6	1067
700.8	1060
701.0	1054
701.2	1051
701.4	1047
701.6	1043
701.8	1037
702.0	1030
702.2	1021
702.4	1016
702.6	1006
702.8	1003
703.0	999.0
703.2	996.3
703.4	989.2
703.6	984.0
703.8	975.8
704.0	969.5
704.2	964.3
704.4	960.7
704.6	953.8
704.8	947.4
705.0	944.1
705.2	938.9
705.4	935.0
705.6	929.1
705.8	924.3
706.0	921.9
706.2	918.3
706.4	912.3
706.6	906.6
706.8	897.6
707.0	893.2
707.2	891.3
707.4	885.5
707.6	883.4
707.8	876.9
708.0	868.8
708.2	864.7
708.4	859.6
708.6	855.6
708.8	853.4
709.0	844.1
709.2	837.8
709.4	834.8
709.6	829.7
709.8	825.3
710.0	818.9
710.2	813.0
710.4	809.3
710.6	809.5
710.8	805.5
711.0	798.1
711.2	789.9
711.4	786.5
711.6	780.5
711.8	779.0
712.0	775.4
712.2	769.2
712.4	762.2
712.6	761.7
712.8	754.4
713.0	751.0
713.2	750.1
713.4	745.4
713.6	735.2
713.8	728.6
714.0	721.4
714.2	717.1
714.4	716.4
714.6	713.3
714.8	706.1
715.0	697.9
715.2	694.9
715.4	692.9
715.6	691.5
715.8	691.4
716.0	686.0
716.2	678.2
716.4	670.8
716.6	665.8
716.8	659.0
717.0	655.6
717.2	653.5
717.4	649.6
717.6	648.0
717.8	643.3
718.0	633.6
718.2	626.3
718.4	622.8
718.6	620.3
718.8	619.0
719.0	615.9
719.2	612.9
719.4	610.5
719.6	606.2
719.8	601.8
720.0	597.5
720.2	591.9
720.4	590.1
720.6	587.9
720.8	582.2
721.0	577.6
721.2	575.8
721.4	569.3
721.6	563.5
721.8	560.4
722.0	556.9
722.2	555.8
722.4	554.6
722.6	549.8
722.8	543.8
723.0	537.9
723.2	533.2
723.4	528.4
723.6	527.5
723.8	527.6
724.0	523.1
724.2	516.2
724.4	510.5
724.6	504.7
724.8	502.2
725.0	502.7
725.2	496.2
725.4	493.7
725.6	492.5
725.8	492.3
726.0	489.4
726.2	487.3
726.4	481.4
726.6	473.4
726.8	467.1
727.0	463.7
727.2	459.7
727.4	459.1
727.6	457.5
727.8	454.6
728.0	452.6
728.2	450.8
728.4	445.4
728.6	440.6
728.8	436.8
729.0	434.4
729.2	429.7
729.4	427.1
729.6	425.0
729.8	422.4
730.0	422.3
730.2	418.2
730.4	410.8
730.6	404.4
730.8	402.5
731.0	400.7
731.2	400.8
731.4	399.2
731.6	396.1
731.8	394.2
732.0	392.8
732.2	389.6
732.4	385.5
732.6	382.6
732.8	378.7
733.0	377.1
733.2	373.9
733.4	370.9
733.6	369.6
733.8	368.7
734.0	366.8
734.2	362.5
734.4	357.6
734.6	353.4
734.8	352.3
735.0	349.5
735.2	348.6
735.4	344.7
735.6	342.0
735.8	339.7
736.0	336.7
736.2	334.4
736.4	332.1
736.6	330.4
736.8	330.3
737.0	329.5
737.2	327.4
737.4	325.3
737.6	320.7
737.8	318.4
738.0	316.1
738.2	314.3
738.4	312.6
738.6	311.7
738.8	308.4
739.0	308.1
739.2	304.4
739.4	301.0
739.6	296.7
739.8	293.0
740.0	289.9
740.2	289.2
740.4	286.1
740.6	286.4
740.8	285.7
741.0	282.7
741.2	281.8
741.4	278.9
741.6	278.4
741.8	278.4
742.0	277.1
742.2	274.3
742.4	272.4
742.6	268.9
742.8	266.4
743.0	262.4
743.2	258.6
743.4	255.9
743.6	256.0
743.8	255.2
744.0	253.8
744.2	253.8
744.4	252.1
744.6	249.3
744.8	247.8
745.0	245.4
745.2	244.0
745.4	244.4
745.6	242.3
745.8	240.6
746.0	238.6
746.2	236.3
746.4	236.0
746.6	234.5
746.8	231.9
747.0	230.2
747.2	230.0
747.4	227.9
747.6	227.2
747.8	225.1
748.0	223.5
748.2	220.3
748.4	219.7
748.6	217.1
748.8	216.4
749.0	214.0
749.2	212.3
749.4	211.8
749.6	211.3
749.8	209.3
750.0	207.3
750.2	204.2
750.4	202.4
750.6	202.6
750.8	201.8
751.0	198.8
751.2	197.7
751.4	196.8
751.6	197.3
751.8	196.2
752.0	196.5
752.2	196.4
752.4	194.9
752.6	193.5
752.8	192.3
753.0	188.9
753.2	187.0
753.4	186.2
753.6	182.8
753.8	183.0
754.0	183.8
754.2	182.4
754.4	180.7
754.6	178.6
754.8	176.5
755.0	174.9
755.2	174.1
755.4	172.1
755.6	171.4
755.8	171.4
756.0	170.3
756.2	168.5
756.4	167.2
756.6	164.8
756.8	163.5
757.0	163.2
757.2	161.1
757.4	160.8
757.6	159.2
757.8	156.3
758.0	154.6
758.2	153.9
758.4	154.5
758.6	157.0
758.8	155.3
759.0	152.9
759.2	150.4
759.4	149.2
759.6	148.8
759.8	148.3
760.0	146.8
760.2	144.5
760.4	143.4
760.6	142.2
760.8	141.3
761.0	140.9
761.2	141.7
761.4	142.4
761.6	143.1
761.8	140.4
762.0	138.1
762.2	135.8
762.4	134.0
762.6	135.0
762.8	134.3
763.0	131.6
763.2	131.0
763.4	129.4
763.6	128.6
763.8	129.3
764.0	128.2
764.2	127.9
764.4	126.7
764.6	125.6
764.8	124.6
765.0	122.7
765.2	120.3
765.4	120.4
765.6	118.9
765.8	118.2
766.0	118.9
766.2	118.0
766.4	117.1
766.6	118.2
766.8	118.0
767.0	115.6
767.2	114.0
767.4	112.7
767.6	110.6
767.8	111.0
768.0	110.7
768.2	109.7
768.4	108.9
768.6	110.4
768.8	109.1
769.0	109.6
769.2	109.1
769.4	107.6
769.6	106.2
769.8	105.3
770.0	104.4
770.2	103.8
770.4	103.0
770.6	101.4
770.8	100.1
771.0	99.30
771.2	99.62
771.4	99.45
771.6	99.48
771.8	99.49
772.0	97.64
772.2	95.56
772.4	94.96
772.6	95.73
772.8	97.02
773.0	98.21
773.2	96.64
773.4	93.78
773.6	92.34
773.8	91.22
774.0	90.96
774.2	91.50
774.4	91.73
774.6	91.01
774.8	89.56
775.0	87.32
775.2	87.41
775.4	87.95
775.6	88.40
775.8	88.05
776.0	86.30
776.2	85.25
776.4	86.08
776.6	85.60
776.8	86.51
777.0	85.55
777.2	84.63
777.4	83.79
777.6	82.70
777.8	80.77
778.0	81.41
778.2	79.32
778.4	79.66
778.6	79.62
778.8	79.78
779.0	78.93
779.2	78.14
779.4	75.96
779.6	76.07
779.8	77.39
780.0	77.65
780.2	76.67
780.4	75.65
780.6	74.89
780.8	75.25
781.0	76.02
781.2	74.98
781.4	74.38
781.6	73.29
781.8	73.08
782.0	73.64
782.2	73.46
782.4	72.11
782.6	70.64
782.8	69.04
783.0	69.08
783.2	70.82
783.4	71.47
783.6	70.67
783.8	69.45
784.0	68.77
784.2	67.62
784.4	67.27
784.6	67.42
784.8	66.44
785.0	65.67
785.2	65.59
785.4	65.20
785.6	65.54
785.8	66.68
786.0	66.08
786.2	65.04
786.4	63.58
786.6	62.95
786.8	63.40
787.0	64.04
787.2	65.12
787.4	64.95
787.6	63.55
787.8	62.80
788.0	61.89
788.2	61.43
788.4	62.48
788.6	62.25
788.8	62.86
789.0	62.99
789.2	62.44
789.4	60.50
789.6	60.67
789.8	60.00
790.0	61.52
790.2	61.05
790.4	60.53
790.6	58.90
790.8	58.81
791.0	58.62
791.2	60.21
791.4	59.78
791.6	60.24
791.8	58.92
792.0	57.58
792.2	56.16
792.4	55.74
792.6	55.48
792.8	56.65
793.0	57.24
793.2	57.12
793.4	56.99
793.6	57.34
793.8	57.08
794.0	56.46
794.2	55.25
794.4	54.25
794.6	53.73
794.8	54.35
795.0	54.61
795.2	54.27
795.4	53.55
795.6	53.39
795.8	52.24
796.0	51.91
796.2	52.51
796.4	52.71
796.6	53.29
796.8	53.79
797.0	53.06
797.2	51.99
797.4	51.98
797.6	51.14
797.8	50.48
798.0	50.39
798.2	50.56
798.4	51.03
798.6	51.17
798.8	51.08
799.0	51.22
799.2	50.59
799.4	50.52
799.6	50.18
799.8	49.34
800.0	48.87
800.2	48.73
800.4	48.20
800.6	48.02
800.8	47.50
801.0	48.53
801.2	48.18
801.4	47.26
801.6	46.98
801.8	46.72
802.0	46.63
802.2	47.81
802.4	47.96
802.6	48.15
802.8	46.86
803.0	45.93
803.2	45.50
803.4	45.03
803.6	45.38
803.8	45.39
804.0	43.90
804.2	43.42
804.4	43.88
804.6	44.07
804.8	45.66
805.0	45.83
805.2	45.53
805.4	44.61
805.6	44.17
805.8	43.39
806.0	43.37
806.2	43.64
806.4	43.70
806.6	43.46
806.8	43.23
807.0	42.58
807.2	41.58
807.4	41.09
807.6	40.50
807.8	40.48
808.0	40.64
808.2	39.76
808.4	38.43
808.6	38.79
808.8	39.78
809.0	40.97
809.2	41.61
809.4	40.98
809.6	40.00
809.8	40.25
810.0	40.46
810.2	40.18
810.4	39.24
810.6	37.86
810.8	37.75
811.0	37.14
811.2	37.77
811.4	38.13
811.6	37.52
811.8	36.56
812.0	36.61
812.2	36.35
812.4	36.76
812.6	37.48
812.8	38.54
813.0	38.69
813.2	38.06
813.4	36.82
813.6	35.15
813.8	34.51
814.0	34.62
814.2	34.75
814.4	34.43
814.6	34.58
814.8	34.38
815.0	34.95
815.2	34.79
815.4	34.90
815.6	34.42
815.8	34.70
816.0	34.27
816.2	34.47
816.4	34.08
816.6	33.10
816.8	32.16
817.0	31.79
817.2	31.54
817.4	32.05
817.6	32.05
817.8	31.73
818.0	31.38
818.2	31.41
818.4	31.09
818.6	31.43
818.8	31.07
819.0	30.34
819.2	29.55
819.4	30.08
819.6	29.92
819.8	29.10
820.0	29.09
820.2	28.60
820.4	27.70
820.6	28.91
820.8	29.18
821.0	28.26
821.2	28.50
821.4	27.76
821.6	26.85
821.8	26.92
822.0	26.73
822.2	26.88
822.4	27.41
822.6	26.75
822.8	25.84
823.0	25.20
823.2	24.56
823.4	24.65
823.6	25.24
823.8	24.92
824.0	24.51
824.2	24.15
824.4	23.05
824.6	22.60
824.8	22.68
825.0	22.98
825.2	23.93
825.4	24.10
825.6	23.19
825.8	22.35
826.0	21.99
826.2	21.86
826.4	21.87
826.6	21.85
826.8	21.57
827.0	21.39
827.2	21.48
827.4	21.26
827.6	20.72
827.8	20.56
828.0	20.26
828.2	20.12
828.4	19.97
828.6	19.94
828.8	19.59
829.0	19.09
829.2	18.41
829.4	18.16
829.6	17.81
829.8	18.17
830.0	18.04
830.2	18.05
830.4	18.00
830.6	18.07
830.8	18.03
831.0	17.74
831.2	16.47
831.4	15.95
831.6	15.74
831.8	16.04
832.0	16.67
832.2	16.69
832.4	16.15
832.6	15.88
832.8	15.33
833.0	14.67
833.2	14.78
833.4	14.81
833.6	14.94
833.8	14.72
834.0	13.87
834.2	12.98
834.4	13.08
834.6	13.34
834.8	13.78
835.0	13.72
835.2	13.90
835.4	13.24
835.6	13.03
835.8	13.08
836.0	12.82
836.2	12.42
836.4	12.44
836.6	11.58
836.8	11.39
837.0	11.51
837.2	11.42
837.4	11.00
837.6	10.75
837.8	10.21
838.0	10.10
838.2	10.49
838.4	10.77
838.6	10.60
838.8	11.00
839.0	10.86
839.2	10.69
839.4	10.65
839.6	10.02
839.8	9.370
840.0	9.179
840.2	8.919
840.4	9.116
840.6	9.299
840.8	9.156
841.0	9.209
841.2	8.794
841.4	8.511
841.6	8.719
841.8	8.253
842.0	7.984
842.2	7.853
842.4	7.480
842.6	7.466
842.8	8.010
843.0	7.792
843.2	7.965
843.4	7.807
843.6	7.274
843.8	7.038
844.0	7.078
844.2	6.848
844.4	7.063
844.6	7.252
844.8	7.139
845.0	6.803
845.2	6.506
845.4	6.389
845.6	6.755
845.8	6.738
846.0	6.650
846.2	6.087
846.4	5.721
846.6	5.407
846.8	5.496
847.0	5.237
847.2	5.226
847.4	5.155
847.6	5.225
847.8	5.395
848.0	5.400
848.2	5.390
848.4	5.138
848.6	4.775
848.8	4.766
849.0	5.029
849.2	5.073
849.4	4.951
849.6	4.641
849.8	4.439
850.0	4.417
850.2	4.587
850.4	4.709
850.6	4.570
850.8	4.628
851.0	4.506
851.2	4.165
851.4	3.967
851.6	4.017
851.8	4.185
852.0	4.503
852.2	4.520
852.4	4.315
852.6	3.874
852.8	3.917
853.0	3.850
853.2	3.535
853.4	3.739
853.6	3.674
853.8	3.559
854.0	3.634
854.2	3.464
854.4	3.351
854.6	3.553
854.8	3.470
855.0	3.504
855.2	3.450
855.4	3.568
855.6	3.708
855.8	3.510
856.0	3.613
856.2	3.300
856.4	3.066
856.6	2.874
856.8	2.812
857.0	2.694
857.2	2.838
857.4	2.831
857.6	2.794
857.8	2.856
858.0	3.109
858.2	3.210
858.4	3.219
858.6	3.227
858.8	2.865
859.0	2.694
859.2	2.765
859.4	2.902
859.6	2.845
859.8	2.946
860.0	2.796
860.2	2.909
860.4	3.012
860.6	2.962
860.8	2.563
861.0	2.388
861.2	2.284
861.4	2.682
861.6	2.689
861.8	2.826
862.0	2.960
862.2	2.822
862.4	2.632
862.6	2.526
862.8	2.200
863.0	2.171
863.2	2.283
863.4	2.318
863.6	2.381
863.8	2.451
864.0	2.442
864.2	2.436
864.4	2.376
864.6	2.360
864.8	2.442
865.0	2.315
865.2	2.205
865.4	2.244
865.6	2.332
865.8	2.334
866.0	2.208
866.2	2.079
866.4	1.875
866.6	1.950
866.8	2.161
867.0	2.328
867.2	2.430
867.4	2.499
867.6	2.274
867.8	2.232
868.0	2.186
868.2	2.326
868.4	2.511
868.6	2.334
868.8	2.179
869.0	2.067
869.2	2.044
869.4	2.077
869.6	2.120
869.8	2.018
870.0	1.916
870.2	2.000
870.4	2.104
870.6	2.150
870.8	2.201
871.0	2.269
871.2	2.205
871.4	2.124
871.6	2.195
871.8	2.282
872.0	2.345
872.2	2.251
872.4	2.135
872.6	1.841
872.8	1.988
873.0	2.038
873.2	2.136
873.4	2.054
873.6	1.851
873.8	1.785
874.0	1.871
874.2	2.112
874.4	2.245
874.6	2.341
874.8	2.067
875.0	1.985
875.2	1.822
875.4	1.974
875.6	1.997
875.8	2.094
876.0	1.954
876.2	1.883
876.4	1.753
876.6	1.825
876.8	1.897
877.0	2.059
877.2	2.183
877.4	2.175
877.6	2.185
877.8	2.141
878.0	2.008
878.2	1.987
878.4	2.040
878.6	2.075
878.8	1.988
879.0	2.177
879.2	2.205
879.4	2.223
879.6	2.008
879.8	1.862
880.0	1.544
880.2	1.652
880.4	1.751
880.6	1.860
880.8	1.936
881.0	2.060
881.2	2.140
881.4	2.334
881.6	2.440
881.8	2.370
882.0	2.172
882.2	2.046
882.4	1.903
882.6	1.985
882.8	2.053
883.0	2.078
883.2	2.026
883.4	2.251
883.6	2.241
883.8	2.304
884.0	2.282
884.2	2.019
884.4	1.968
884.6	1.894
884.8	1.843
885.0	1.892
885.2	1.926
885.4	1.854
885.6	2.016
885.8	2.030
886.0	2.096
886.2	2.084
886.4	2.025
886.6	2.045
886.8	2.095
887.0	2.025
887.2	2.015
887.4	1.847
887.6	1.802
887.8	1.731
888.0	1.810
888.2	1.836
888.4	1.961
888.6	1.907
888.8	1.942
889.0	1.923
889.2	2.019
889.4	2.014
889.6	2.034
889.8	1.972
890.0	1.914
890.2	1.884
890.4	2.000
890.6	1.942
890.8	1.927
891.0	1.792
891.2	1.863
891.4	1.700
891.6	2.080
891.8	2.226
892.0	2.190
892.2	2.060
892.4	1.946
892.6	1.694
892.8	1.748
893.0	1.726
893.2	1.797
893.4	1.754
893.6	2.005
893.8	2.119
894.0	2.196
894.2	2.187
894.4	2.225
894.6	1.983
894.8	2.022
895.0	1.898
895.2	1.893
895.4	1.975
895.6	2.115
895.8	2.132
896.0	2.107
896.2	2.092
896.4	2.172
896.6	2.254
896.8	2.331
897.0	2.337
897.2	2.223
897.4	2.078
897.6	2.123
897.8	1.986
898.0	2.139
898.2	2.050
898.4	2.026
898.6	1.955
898.8	2.022
899.0	2.219
899.2	2.511
899.4	2.442
899.6	2.371
899.8	2.218
900.0	1.980

