Sample:	'20211010A(EM)
File name:	r-NI-cds 1;5 800V.FDS
Run date:	'08:25:59, 03/22/2023
Operator:	Administrator
Comment:	'

Instrument
Model:	F-4700 FL Spectrophotometer
Serial number:	2019-001
ROM Version:	5J24010 00

Instrument parameters
Measurement type:	Wavelength scan
Scan mode:	Emission
Data mode:	Fluorescence
EX WL:	530.0 nm
EM  Start WL:	550.0 nm
EM  End WL:	900.0 nm
Scan speed:	1200 nm/min
Delay:	0.0 s
EX Slit:	10.0 nm
EM Slit:	10.0 nm
PMT Voltage:	800 V
Response:	0.002 s
Corrected spectra:	Off
Shutter control:	On

Processing performed
Savitsky-Golay smoothed
Smoothing order:	3
Number of points:	7
Number of times:	1

Peak integration
Integration method:	Rectangular
Sensitivity:	1
Threshold:	1.000

Peaks
No.	Start(nm)	Apex(nm)	End(nm)	Height(Data)	Valley(nm)	Valley(Data)
1	550.0	617.2	617.8	7893	617.8	7852
2	617.8	619.6	620.8	7984	620.8	7949
3	620.8	623.4	623.8	8026	623.8	7970
4	623.8	625.2	627.0	8087	627.0	7902
5	627.0	628.0	638.0	7972	638.0	7348
6	638.0	638.4	748.2	7402	748.2	470.3
7	748.2	748.8	778.4	494.4	778.4	178.6
8	778.4	779.0	783.6	195.8	783.6	165.4
9	783.6	784.6	787.0	173.5	787.0	153.3
10	787.0	788.4	792.4	163.5	792.4	134.3
11	792.4	793.2	795.8	146.2	795.8	127.4
12	795.8	796.4	798.2	138.7	798.2	128.7
13	798.2	799.4	801.2	142.0	801.2	119.0
14	801.2	802.2	805.0	128.0	805.0	115.7
15	805.0	805.8	808.2	121.6	808.2	104.5
16	808.2	808.6	810.8	117.3	810.8	98.05
17	810.8	811.6	812.4	113.7	812.4	96.85
18	812.4	813.0	813.8	107.1	813.8	96.98
19	813.8	814.6	817.6	103.6	817.6	86.27
20	817.6	818.6	820.0	88.67	820.0	81.69
21	820.0	820.8	824.0	87.12	824.0	73.15
22	824.0	824.8	837.0	77.28	837.0	34.03
23	837.0	837.4	845.0	36.94	845.0	17.30
24	845.0	845.8	848.6	22.29	848.6	12.26
25	848.6	849.4	852.6	15.08	852.6	8.379
26	852.6	853.6	857.0	9.833	857.0	6.865
27	857.0	857.8	860.6	9.326	860.6	5.727
28	860.6	861.4	863.4	7.089	863.4	3.988
29	863.4	865.4	866.6	6.102	866.6	4.145
30	866.6	867.4	868.4	5.644	868.4	3.176
31	868.4	870.8	872.0	5.880	872.0	2.618
32	872.0	873.0	874.0	4.306	874.0	2.600
33	874.0	879.2	881.4	5.281	881.4	2.206
34	881.4	884.4	885.2	4.511	885.2	3.032
35	885.2	886.0	886.6	5.637	886.6	2.266
36	886.6	887.4	888.2	4.985	888.2	2.542
37	888.2	888.8	890.8	5.865	890.8	2.656
38	890.8	891.6	893.4	4.509	893.4	2.919
39	893.4	897.4	898.6	4.590	898.6	3.285

Data points
nm	Data
550.0	401.0
550.2	419.8
550.4	428.1
550.6	431.4
550.8	440.4
551.0	450.0
551.2	454.4
551.4	461.6
551.6	473.0
551.8	482.5
552.0	493.9
552.2	501.0
552.4	502.9
552.6	500.1
552.8	508.6
553.0	522.6
553.2	540.6
553.4	549.4
553.6	557.4
553.8	556.1
554.0	562.4
554.2	578.8
554.4	603.9
554.6	623.4
554.8	631.8
555.0	628.1
555.2	626.2
555.4	635.1
555.6	645.6
555.8	668.7
556.0	681.7
556.2	690.8
556.4	700.5
556.6	714.4
556.8	724.0
557.0	738.5
557.2	752.0
557.4	755.6
557.6	761.8
557.8	780.1
558.0	800.7
558.2	816.1
558.4	829.9
558.6	837.6
558.8	847.6
559.0	869.1
559.2	888.1
559.4	896.7
559.6	904.0
559.8	912.2
560.0	918.2
560.2	933.1
560.4	946.4
560.6	961.2
560.8	987.6
561.0	1004
561.2	1029
561.4	1041
561.6	1049
561.8	1068
562.0	1087
562.2	1109
562.4	1138
562.6	1144
562.8	1164
563.0	1184
563.2	1189
563.4	1205
563.6	1208
563.8	1223
564.0	1240
564.2	1272
564.4	1282
564.6	1293
564.8	1297
565.0	1312
565.2	1340
565.4	1380
565.6	1413
565.8	1446
566.0	1469
566.2	1479
566.4	1512
566.6	1529
566.8	1556
567.0	1567
567.2	1576
567.4	1573
567.6	1601
567.8	1636
568.0	1670
568.2	1691
568.4	1717
568.6	1721
568.8	1756
569.0	1780
569.2	1810
569.4	1817
569.6	1812
569.8	1808
570.0	1830
570.2	1856
570.4	1918
570.6	1968
570.8	1985
571.0	2005
571.2	2015
571.4	2015
571.6	2048
571.8	2091
572.0	2124
572.2	2151
572.4	2162
572.6	2169
572.8	2192
573.0	2217
573.2	2248
573.4	2267
573.6	2300
573.8	2330
574.0	2360
574.2	2383
574.4	2402
574.6	2425
574.8	2450
575.0	2480
575.2	2520
575.4	2565
575.6	2586
575.8	2610
576.0	2628
576.2	2662
576.4	2695
576.6	2728
576.8	2730
577.0	2740
577.2	2779
577.4	2828
577.6	2876
577.8	2919
578.0	2948
578.2	3000
578.4	3038
578.6	3046
578.8	3070
579.0	3082
579.2	3100
579.4	3140
579.6	3160
579.8	3171
580.0	3208
580.2	3240
580.4	3268
580.6	3276
580.8	3298
581.0	3324
581.2	3377
581.4	3422
581.6	3464
581.8	3514
582.0	3539
582.2	3548
582.4	3580
582.6	3584
582.8	3597
583.0	3655
583.2	3687
583.4	3743
583.6	3805
583.8	3833
584.0	3853
584.2	3876
584.4	3906
584.6	3941
584.8	3961
585.0	3994
585.2	4047
585.4	4072
585.6	4098
585.8	4115
586.0	4147
586.2	4198
586.4	4258
586.6	4271
586.8	4286
587.0	4299
587.2	4313
587.4	4346
587.6	4373
587.8	4418
588.0	4488
588.2	4519
588.4	4524
588.6	4559
588.8	4576
589.0	4605
589.2	4656
589.4	4685
589.6	4714
589.8	4753
590.0	4803
590.2	4805
590.4	4834
590.6	4881
590.8	4926
591.0	4981
591.2	5041
591.4	5038
591.6	5070
591.8	5104
592.0	5126
592.2	5160
592.4	5174
592.6	5192
592.8	5221
593.0	5256
593.2	5301
593.4	5333
593.6	5369
593.8	5405
594.0	5426
594.2	5456
594.4	5503
594.6	5523
594.8	5554
595.0	5597
595.2	5614
595.4	5634
595.6	5681
595.8	5700
596.0	5739
596.2	5774
596.4	5793
596.6	5824
596.8	5866
597.0	5894
597.2	5921
597.4	5941
597.6	5963
597.8	5980
598.0	6018
598.2	6063
598.4	6091
598.6	6156
598.8	6181
599.0	6178
599.2	6213
599.4	6246
599.6	6276
599.8	6318
600.0	6344
600.2	6355
600.4	6402
600.6	6435
600.8	6459
601.0	6469
601.2	6485
601.4	6485
601.6	6497
601.8	6540
602.0	6570
602.2	6620
602.4	6663
602.6	6670
602.8	6673
603.0	6727
603.2	6750
603.4	6798
603.6	6812
603.8	6838
604.0	6813
604.2	6826
604.4	6816
604.6	6847
604.8	6876
605.0	6974
605.2	6999
605.4	7023
605.6	7033
605.8	7021
606.0	7007
606.2	7047
606.4	7065
606.6	7103
606.8	7151
607.0	7153
607.2	7167
607.4	7195
607.6	7216
607.8	7243
608.0	7263
608.2	7283
608.4	7303
608.6	7333
608.8	7350
609.0	7346
609.2	7355
609.4	7393
609.6	7405
609.8	7432
610.0	7460
610.2	7476
610.4	7485
610.6	7501
610.8	7484
611.0	7495
611.2	7535
611.4	7576
611.6	7579
611.8	7574
612.0	7594
612.2	7636
612.4	7694
612.6	7725
612.8	7701
613.0	7649
613.2	7681
613.4	7692
613.6	7731
613.8	7758
614.0	7727
614.2	7694
614.4	7726
614.6	7735
614.8	7771
615.0	7786
615.2	7795
615.4	7800
615.6	7819
615.8	7846
616.0	7881
616.2	7864
616.4	7870
616.6	7858
616.8	7860
617.0	7870
617.2	7893
617.4	7884
617.6	7857
617.8	7852
618.0	7855
618.2	7853
618.4	7870
618.6	7895
618.8	7888
619.0	7916
619.2	7958
619.4	7983
619.6	7984
619.8	7975
620.0	7960
620.2	7967
620.4	7970
620.6	7969
620.8	7949
621.0	7960
621.2	7960
621.4	7982
621.6	8010
621.8	7999
622.0	7977
622.2	8009
622.4	7986
622.6	7979
622.8	8015
623.0	7989
623.2	7990
623.4	8026
623.6	8000
623.8	7970
624.0	8015
624.2	7984
624.4	8009
624.6	8032
624.8	8038
625.0	8052
625.2	8087
625.4	8012
625.6	7985
625.8	7980
626.0	7993
626.2	7997
626.4	7979
626.6	7930
626.8	7908
627.0	7902
627.2	7903
627.4	7918
627.6	7943
627.8	7947
628.0	7972
628.2	7965
628.4	7970
628.6	7963
628.8	7955
629.0	7918
629.2	7922
629.4	7902
629.6	7892
629.8	7860
630.0	7877
630.2	7891
630.4	7901
630.6	7880
630.8	7861
631.0	7859
631.2	7877
631.4	7850
631.6	7852
631.8	7834
632.0	7816
632.2	7796
632.4	7741
632.6	7689
632.8	7705
633.0	7731
633.2	7764
633.4	7768
633.6	7740
633.8	7696
634.0	7642
634.2	7631
634.4	7639
634.6	7642
634.8	7649
635.0	7635
635.2	7617
635.4	7603
635.6	7577
635.8	7549
636.0	7569
636.2	7570
636.4	7582
636.6	7546
636.8	7490
637.0	7432
637.2	7410
637.4	7372
637.6	7374
637.8	7349
638.0	7348
638.2	7392
638.4	7402
638.6	7392
638.8	7396
639.0	7364
639.2	7340
639.4	7358
639.6	7303
639.8	7267
640.0	7264
640.2	7259
640.4	7255
640.6	7251
640.8	7213
641.0	7179
641.2	7155
641.4	7136
641.6	7151
641.8	7162
642.0	7173
642.2	7159
642.4	7129
642.6	7092
642.8	7060
643.0	7029
643.2	7022
643.4	6979
643.6	6959
643.8	6923
644.0	6881
644.2	6861
644.4	6869
644.6	6846
644.8	6845
645.0	6818
645.2	6815
645.4	6782
645.6	6777
645.8	6754
646.0	6720
646.2	6681
646.4	6677
646.6	6630
646.8	6628
647.0	6610
647.2	6592
647.4	6571
647.6	6562
647.8	6531
648.0	6532
648.2	6488
648.4	6458
648.6	6456
648.8	6451
649.0	6443
649.2	6430
649.4	6373
649.6	6321
649.8	6301
650.0	6282
650.2	6261
650.4	6236
650.6	6261
650.8	6252
651.0	6256
651.2	6245
651.4	6171
651.6	6119
651.8	6124
652.0	6092
652.2	6065
652.4	6034
652.6	6009
652.8	6005
653.0	6023
653.2	5996
653.4	5971
653.6	5925
653.8	5907
654.0	5905
654.2	5927
654.4	5901
654.6	5915
654.8	5879
655.0	5837
655.2	5806
655.4	5783
655.6	5727
655.8	5705
656.0	5668
656.2	5668
656.4	5656
656.6	5633
656.8	5608
657.0	5586
657.2	5562
657.4	5554
657.6	5543
657.8	5518
658.0	5483
658.2	5439
658.4	5405
658.6	5371
658.8	5347
659.0	5349
659.2	5314
659.4	5288
659.6	5280
659.8	5281
660.0	5262
660.2	5265
660.4	5255
660.6	5227
660.8	5187
661.0	5155
661.2	5058
661.4	5023
661.6	5034
661.8	5050
662.0	5062
662.2	5062
662.4	5010
662.6	4972
662.8	4921
663.0	4903
663.2	4890
663.4	4888
663.6	4888
663.8	4856
664.0	4812
664.2	4814
664.4	4810
664.6	4820
664.8	4800
665.0	4767
665.2	4702
665.4	4655
665.6	4620
665.8	4604
666.0	4607
666.2	4605
666.4	4577
666.6	4559
666.8	4542
667.0	4516
667.2	4503
667.4	4491
667.6	4490
667.8	4467
668.0	4419
668.2	4377
668.4	4334
668.6	4329
668.8	4324
669.0	4282
669.2	4268
669.4	4263
669.6	4242
669.8	4218
670.0	4191
670.2	4158
670.4	4181
670.6	4177
670.8	4179
671.0	4149
671.2	4125
671.4	4091
671.6	4075
671.8	4033
672.0	4010
672.2	3997
672.4	3983
672.6	3971
672.8	3973
673.0	3950
673.2	3932
673.4	3904
673.6	3879
673.8	3862
674.0	3863
674.2	3829
674.4	3820
674.6	3783
674.8	3774
675.0	3747
675.2	3716
675.4	3693
675.6	3691
675.8	3676
676.0	3653
676.2	3626
676.4	3599
676.6	3591
676.8	3582
677.0	3554
677.2	3547
677.4	3542
677.6	3545
677.8	3520
678.0	3507
678.2	3474
678.4	3483
678.6	3447
678.8	3433
679.0	3389
679.2	3366
679.4	3332
679.6	3333
679.8	3306
680.0	3307
680.2	3269
680.4	3242
680.6	3220
680.8	3215
681.0	3210
681.2	3206
681.4	3190
681.6	3169
681.8	3160
682.0	3143
682.2	3125
682.4	3082
682.6	3083
682.8	3075
683.0	3065
683.2	3056
683.4	3043
683.6	3005
683.8	2998
684.0	2965
684.2	2939
684.4	2928
684.6	2909
684.8	2902
685.0	2894
685.2	2889
685.4	2888
685.6	2900
685.8	2853
686.0	2827
686.2	2796
686.4	2788
686.6	2781
686.8	2791
687.0	2768
687.2	2772
687.4	2754
687.6	2733
687.8	2699
688.0	2672
688.2	2659
688.4	2635
688.6	2625
688.8	2642
689.0	2644
689.2	2643
689.4	2631
689.6	2575
689.8	2546
690.0	2554
690.2	2564
690.4	2545
690.6	2508
690.8	2477
691.0	2482
691.2	2481
691.4	2490
691.6	2461
691.8	2428
692.0	2426
692.2	2424
692.4	2408
692.6	2395
692.8	2388
693.0	2377
693.2	2366
693.4	2345
693.6	2342
693.8	2334
694.0	2321
694.2	2294
694.4	2262
694.6	2252
694.8	2254
695.0	2241
695.2	2245
695.4	2265
695.6	2254
695.8	2250
696.0	2222
696.2	2171
696.4	2168
696.6	2178
696.8	2156
697.0	2145
697.2	2141
697.4	2134
697.6	2135
697.8	2130
698.0	2100
698.2	2077
698.4	2062
698.6	2057
698.8	2053
699.0	2052
699.2	2046
699.4	2042
699.6	2023
699.8	2012
700.0	1998
700.2	2001
700.4	2004
700.6	1991
700.8	1965
701.0	1948
701.2	1940
701.4	1943
701.6	1948
701.8	1932
702.0	1908
702.2	1892
702.4	1888
702.6	1889
702.8	1892
703.0	1896
703.2	1874
703.4	1848
703.6	1829
703.8	1813
704.0	1804
704.2	1813
704.4	1800
704.6	1801
704.8	1801
705.0	1794
705.2	1797
705.4	1792
705.6	1773
705.8	1773
706.0	1764
706.2	1738
706.4	1728
706.6	1706
706.8	1696
707.0	1695
707.2	1696
707.4	1688
707.6	1693
707.8	1688
708.0	1670
708.2	1641
708.4	1628
708.6	1632
708.8	1628
709.0	1623
709.2	1604
709.4	1588
709.6	1585
709.8	1599
710.0	1585
710.2	1577
710.4	1558
710.6	1537
710.8	1542
711.0	1556
711.2	1555
711.4	1546
711.6	1522
711.8	1504
712.0	1498
712.2	1487
712.4	1469
712.6	1457
712.8	1444
713.0	1442
713.2	1429
713.4	1418
713.6	1423
713.8	1422
714.0	1411
714.2	1401
714.4	1372
714.6	1361
714.8	1362
715.0	1357
715.2	1358
715.4	1359
715.6	1342
715.8	1327
716.0	1302
716.2	1288
716.4	1275
716.6	1270
716.8	1275
717.0	1291
717.2	1293
717.4	1292
717.6	1256
717.8	1231
718.0	1226
718.2	1241
718.4	1247
718.6	1248
718.8	1218
719.0	1206
719.2	1193
719.4	1179
719.6	1173
719.8	1170
720.0	1172
720.2	1175
720.4	1171
720.6	1152
720.8	1141
721.0	1130
721.2	1129
721.4	1125
721.6	1125
721.8	1114
722.0	1105
722.2	1095
722.4	1082
722.6	1070
722.8	1057
723.0	1040
723.2	1029
723.4	1036
723.6	1038
723.8	1027
724.0	1022
724.2	1017
724.4	999.2
724.6	995.7
724.8	991.6
725.0	975.2
725.2	969.9
725.4	973.7
725.6	968.7
725.8	976.8
726.0	983.0
726.2	984.0
726.4	969.6
726.6	957.9
726.8	937.9
727.0	927.7
727.2	918.7
727.4	917.4
727.6	923.5
727.8	932.4
728.0	921.1
728.2	922.7
728.4	914.2
728.6	897.7
728.8	889.4
729.0	882.8
729.2	861.7
729.4	860.7
729.6	864.2
729.8	858.4
730.0	866.9
730.2	859.8
730.4	850.9
730.6	845.4
730.8	846.3
731.0	831.4
731.2	838.8
731.4	822.0
731.6	813.6
731.8	808.6
732.0	803.5
732.2	793.1
732.4	794.3
732.6	783.8
732.8	780.3
733.0	779.4
733.2	781.5
733.4	783.1
733.6	786.1
733.8	774.9
734.0	763.5
734.2	749.3
734.4	737.0
734.6	725.8
734.8	727.9
735.0	719.9
735.2	715.6
735.4	718.7
735.6	717.5
735.8	722.4
736.0	736.1
736.2	725.8
736.4	713.0
736.6	699.4
736.8	686.8
737.0	684.2
737.2	690.6
737.4	684.5
737.6	685.3
737.8	669.9
738.0	659.3
738.2	654.8
738.4	654.7
738.6	655.0
738.8	653.9
739.0	646.7
739.2	643.9
739.4	643.7
739.6	649.5
739.8	645.3
740.0	642.3
740.2	631.4
740.4	619.9
740.6	616.5
740.8	618.4
741.0	616.2
741.2	617.2
741.4	606.1
741.6	592.5
741.8	593.8
742.0	587.4
742.2	579.3
742.4	575.7
742.6	577.9
742.8	571.3
743.0	575.9
743.2	572.9
743.4	568.5
743.6	563.8
743.8	565.2
744.0	557.8
744.2	551.8
744.4	543.9
744.6	538.9
744.8	532.8
745.0	542.2
745.2	542.4
745.4	536.2
745.6	538.2
745.8	534.6
746.0	525.8
746.2	519.8
746.4	514.2
746.6	502.9
746.8	507.0
747.0	507.6
747.2	502.9
747.4	499.7
747.6	497.2
747.8	486.1
748.0	477.6
748.2	470.3
748.4	474.7
748.6	488.0
748.8	494.4
749.0	493.3
749.2	492.5
749.4	483.6
749.6	480.8
749.8	472.1
750.0	464.2
750.2	456.4
750.4	458.5
750.6	454.7
750.8	455.2
751.0	448.4
751.2	440.4
751.4	432.5
751.6	434.4
751.8	435.9
752.0	439.4
752.2	437.2
752.4	431.9
752.6	423.2
752.8	425.5
753.0	421.9
753.2	420.4
753.4	413.9
753.6	409.7
753.8	400.8
754.0	395.6
754.2	386.4
754.4	387.9
754.6	388.5
754.8	391.6
755.0	388.6
755.2	382.3
755.4	377.6
755.6	379.5
755.8	381.8
756.0	383.5
756.2	382.6
756.4	379.3
756.6	381.7
756.8	379.5
757.0	371.7
757.2	370.8
757.4	366.0
757.6	358.2
757.8	355.2
758.0	353.5
758.2	350.4
758.4	358.6
758.6	362.4
758.8	359.7
759.0	353.2
759.2	350.6
759.4	339.9
759.6	338.5
759.8	335.4
760.0	337.4
760.2	339.2
760.4	338.8
760.6	335.0
760.8	338.0
761.0	332.2
761.2	336.2
761.4	334.6
761.6	328.2
761.8	320.7
762.0	320.4
762.2	320.8
762.4	323.2
762.6	326.3
762.8	322.0
763.0	317.4
763.2	318.2
763.4	313.3
763.6	305.0
763.8	304.1
764.0	297.0
764.2	293.9
764.4	295.1
764.6	293.3
764.8	293.3
765.0	295.0
765.2	293.3
765.4	291.5
765.6	294.3
765.8	298.1
766.0	299.2
766.2	293.1
766.4	285.3
766.6	278.5
766.8	270.1
767.0	270.2
767.2	274.6
767.4	272.3
767.6	274.7
767.8	270.9
768.0	264.6
768.2	258.7
768.4	258.8
768.6	254.0
768.8	256.1
769.0	250.4
769.2	253.4
769.4	253.5
769.6	247.3
769.8	241.1
770.0	241.9
770.2	243.2
770.4	249.3
770.6	250.1
770.8	242.9
771.0	232.5
771.2	232.7
771.4	236.4
771.6	242.1
771.8	242.5
772.0	241.7
772.2	235.5
772.4	230.5
772.6	227.9
772.8	225.0
773.0	224.1
773.2	224.5
773.4	225.8
773.6	221.6
773.8	226.3
774.0	215.1
774.2	211.4
774.4	208.6
774.6	206.2
774.8	203.8
775.0	202.7
775.2	195.3
775.4	197.2
775.6	197.9
775.8	201.3
776.0	203.3
776.2	200.7
776.4	197.3
776.6	196.0
776.8	185.9
777.0	181.8
777.2	181.1
777.4	187.4
777.6	189.1
777.8	193.6
778.0	183.3
778.2	182.5
778.4	178.6
778.6	186.5
778.8	190.5
779.0	195.8
779.2	193.6
779.4	186.8
779.6	181.1
779.8	185.3
780.0	186.6
780.2	190.9
780.4	191.4
780.6	183.6
780.8	179.2
781.0	177.3
781.2	172.6
781.4	174.3
781.6	172.0
781.8	176.3
782.0	174.8
782.2	176.5
782.4	176.6
782.6	176.2
782.8	171.8
783.0	172.0
783.2	167.8
783.4	169.0
783.6	165.4
783.8	165.6
784.0	166.0
784.2	167.6
784.4	170.0
784.6	173.5
784.8	168.9
785.0	165.9
785.2	161.9
785.4	156.5
785.6	155.7
785.8	154.2
786.0	156.4
786.2	159.4
786.4	161.2
786.6	157.4
786.8	156.0
787.0	153.3
787.2	155.2
787.4	158.3
787.6	155.2
787.8	153.4
788.0	153.4
788.2	160.4
788.4	163.5
788.6	160.9
788.8	157.9
789.0	156.1
789.2	153.9
789.4	158.0
789.6	157.8
789.8	154.5
790.0	152.4
790.2	150.1
790.4	147.0
790.6	149.1
790.8	151.0
791.0	151.4
791.2	146.4
791.4	148.0
791.6	145.7
791.8	143.6
792.0	140.9
792.2	138.5
792.4	134.3
792.6	136.2
792.8	141.4
793.0	142.8
793.2	146.2
793.4	146.1
793.6	141.3
793.8	137.8
794.0	139.7
794.2	139.6
794.4	141.2
794.6	138.6
794.8	137.4
795.0	139.1
795.2	138.5
795.4	134.2
795.6	130.5
795.8	127.4
796.0	128.1
796.2	134.6
796.4	138.7
796.6	137.8
796.8	136.9
797.0	130.9
797.2	129.6
797.4	130.7
797.6	132.0
797.8	131.0
798.0	131.1
798.2	128.7
798.4	131.3
798.6	131.3
798.8	134.0
799.0	135.1
799.2	139.9
799.4	142.0
799.6	138.0
799.8	133.8
800.0	126.6
800.2	123.5
800.4	126.0
800.6	126.9
800.8	123.8
801.0	123.0
801.2	119.0
801.4	120.8
801.6	121.4
801.8	125.2
802.0	125.3
802.2	128.0
802.4	127.8
802.6	125.7
802.8	123.6
803.0	123.7
803.2	126.2
803.4	126.7
803.6	124.7
803.8	121.4
804.0	120.7
804.2	119.3
804.4	123.7
804.6	122.9
804.8	120.4
805.0	115.7
805.2	117.3
805.4	120.0
805.6	121.1
805.8	121.6
806.0	118.1
806.2	116.6
806.4	118.3
806.6	121.0
806.8	118.4
807.0	117.0
807.2	115.7
807.4	118.8
807.6	113.5
807.8	109.8
808.0	105.2
808.2	104.5
808.4	109.0
808.6	117.3
808.8	116.8
809.0	115.7
809.2	111.3
809.4	107.9
809.6	106.5
809.8	111.2
810.0	112.2
810.2	109.3
810.4	106.4
810.6	101.0
810.8	98.05
811.0	101.8
811.2	104.9
811.4	110.6
811.6	113.7
811.8	109.2
812.0	105.1
812.2	101.5
812.4	96.85
812.6	103.6
812.8	106.7
813.0	107.1
813.2	106.2
813.4	102.3
813.6	97.08
813.8	96.98
814.0	96.99
814.2	100.4
814.4	101.8
814.6	103.6
814.8	101.5
815.0	99.11
815.2	98.55
815.4	100.4
815.6	99.14
815.8	100.2
816.0	97.14
816.2	94.97
816.4	94.83
816.6	94.55
816.8	93.34
817.0	91.08
817.2	88.84
817.4	87.86
817.6	86.27
817.8	86.56
818.0	87.83
818.2	87.21
818.4	86.90
818.6	88.67
818.8	88.14
819.0	88.13
819.2	87.47
819.4	86.31
819.6	84.74
819.8	83.99
820.0	81.69
820.2	82.99
820.4	84.52
820.6	85.97
820.8	87.12
821.0	86.23
821.2	82.57
821.4	82.88
821.6	82.44
821.8	79.69
822.0	80.17
822.2	80.08
822.4	79.60
822.6	82.03
822.8	80.41
823.0	77.75
823.2	78.23
823.4	77.19
823.6	76.32
823.8	73.75
824.0	73.15
824.2	73.83
824.4	74.57
824.6	75.47
824.8	77.28
825.0	73.96
825.2	73.25
825.4	68.89
825.6	67.59
825.8	69.15
826.0	71.69
826.2	71.77
826.4	70.19
826.6	64.68
826.8	63.18
827.0	62.40
827.2	62.09
827.4	63.20
827.6	64.92
827.8	63.93
828.0	62.66
828.2	63.84
828.4	63.23
828.6	63.11
828.8	61.09
829.0	57.79
829.2	55.17
829.4	54.55
829.6	53.89
829.8	54.91
830.0	54.60
830.2	50.97
830.4	50.74
830.6	50.76
830.8	51.74
831.0	53.48
831.2	54.59
831.4	51.59
831.6	50.68
831.8	48.64
832.0	48.14
832.2	46.52
832.4	47.11
832.6	46.22
832.8	45.18
833.0	44.91
833.2	46.36
833.4	45.01
833.6	44.96
833.8	44.02
834.0	40.55
834.2	40.93
834.4	40.60
834.6	39.45
834.8	40.01
835.0	40.81
835.2	40.30
835.4	41.91
835.6	42.72
835.8	39.22
836.0	38.12
836.2	36.03
836.4	34.26
836.6	34.43
836.8	34.91
837.0	34.03
837.2	36.58
837.4	36.94
837.6	34.72
837.8	35.92
838.0	35.83
838.2	35.56
838.4	35.04
838.6	31.95
838.8	29.23
839.0	28.88
839.2	30.08
839.4	31.06
839.6	31.76
839.8	30.59
840.0	30.42
840.2	28.70
840.4	29.51
840.6	28.75
840.8	29.88
841.0	30.50
841.2	32.22
841.4	29.74
841.6	27.01
841.8	23.67
842.0	22.70
842.2	23.09
842.4	26.43
842.6	25.03
842.8	24.73
843.0	24.27
843.2	22.70
843.4	22.39
843.6	23.39
843.8	21.46
844.0	21.21
844.2	19.56
844.4	18.15
844.6	18.97
844.8	19.38
845.0	17.30
845.2	18.58
845.4	19.90
845.6	21.41
845.8	22.29
846.0	21.15
846.2	18.30
846.4	18.13
846.6	17.22
846.8	16.71
847.0	16.72
847.2	16.73
847.4	16.64
847.6	16.38
847.8	15.27
848.0	13.55
848.2	13.92
848.4	12.93
848.6	12.26
848.8	12.74
849.0	13.07
849.2	13.76
849.4	15.08
849.6	13.78
849.8	13.89
850.0	13.60
850.2	12.23
850.4	12.46
850.6	12.54
850.8	11.60
851.0	12.13
851.2	11.36
851.4	10.53
851.6	10.63
851.8	10.51
852.0	9.829
852.2	9.070
852.4	8.774
852.6	8.379
852.8	8.571
853.0	9.099
853.2	9.225
853.4	8.687
853.6	9.833
853.8	9.309
854.0	9.442
854.2	9.716
854.4	9.639
854.6	9.169
854.8	9.199
855.0	7.761
855.2	8.273
855.4	8.371
855.6	9.082
855.8	8.766
856.0	8.826
856.2	8.013
856.4	8.338
856.6	8.231
856.8	7.860
857.0	6.865
857.2	7.709
857.4	8.063
857.6	8.972
857.8	9.326
858.0	8.834
858.2	8.312
858.4	7.252
858.6	6.849
858.8	6.817
859.0	6.248
859.2	7.311
859.4	7.973
859.6	7.483
859.8	7.493
860.0	6.753
860.2	5.767
860.4	5.744
860.6	5.727
860.8	6.303
861.0	6.589
861.2	6.680
861.4	7.089
861.6	6.785
861.8	6.789
862.0	6.784
862.2	5.987
862.4	5.536
862.6	5.459
862.8	5.323
863.0	5.255
863.2	4.799
863.4	3.988
863.6	4.403
863.8	4.224
864.0	4.620
864.2	5.196
864.4	5.259
864.6	5.443
864.8	5.803
865.0	5.596
865.2	6.039
865.4	6.102
865.6	5.488
865.8	5.934
866.0	5.549
866.2	4.963
866.4	4.439
866.6	4.145
866.8	4.319
867.0	4.900
867.2	5.542
867.4	5.644
867.6	5.617
867.8	5.642
868.0	5.525
868.2	4.064
868.4	3.176
868.6	3.547
868.8	4.326
869.0	5.140
869.2	5.299
869.4	4.389
869.6	3.625
869.8	4.329
870.0	4.307
870.2	4.776
870.4	5.585
870.6	5.803
870.8	5.880
871.0	5.801
871.2	4.691
871.4	3.982
871.6	4.012
871.8	3.252
872.0	2.618
872.2	2.811
872.4	2.791
872.6	3.601
872.8	4.224
873.0	4.306
873.2	4.293
873.4	3.944
873.6	3.328
873.8	3.207
874.0	2.600
874.2	2.860
874.4	3.218
874.6	3.725
874.8	4.126
875.0	4.113
875.2	3.124
875.4	3.070
875.6	3.165
875.8	3.938
876.0	3.518
876.2	3.524
876.4	3.151
876.6	3.017
876.8	3.470
877.0	4.042
877.2	3.407
877.4	3.050
877.6	3.427
877.8	3.827
878.0	4.991
878.2	5.214
878.4	4.486
878.6	3.308
878.8	3.437
879.0	4.419
879.2	5.281
879.4	5.213
879.6	4.141
879.8	3.185
880.0	2.687
880.2	2.849
880.4	3.293
880.6	4.035
880.8	3.645
881.0	3.253
881.2	2.718
881.4	2.206
881.6	2.333
881.8	2.590
882.0	2.839
882.2	2.568
882.4	2.446
882.6	2.447
882.8	2.371
883.0	2.815
883.2	3.163
883.4	2.877
883.6	2.465
883.8	2.810
884.0	3.076
884.2	4.204
884.4	4.511
884.6	4.410
884.8	4.088
885.0	3.803
885.2	3.032
885.4	3.518
885.6	4.270
885.8	5.178
886.0	5.637
886.2	4.954
886.4	3.481
886.6	2.266
886.8	2.899
887.0	3.665
887.2	4.883
887.4	4.985
887.6	4.492
887.8	3.151
888.0	2.897
888.2	2.542
888.4	4.369
888.6	5.179
888.8	5.865
889.0	5.181
889.2	4.619
889.4	3.268
889.6	2.980
889.8	2.996
890.0	3.720
890.2	3.217
890.4	3.881
890.6	3.629
890.8	2.656
891.0	3.048
891.2	4.007
891.4	3.834
891.6	4.509
891.8	4.485
892.0	3.713
892.2	3.767
892.4	3.988
892.6	3.893
892.8	4.461
893.0	3.951
893.2	3.243
893.4	2.919
893.6	3.294
893.8	3.497
894.0	3.682
894.2	3.339
894.4	2.952
894.6	3.433
894.8	4.267
895.0	4.414
895.2	4.199
895.4	3.772
895.6	3.566
895.8	3.928
896.0	3.875
896.2	4.370
896.4	4.316
896.6	3.696
896.8	3.720
897.0	4.008
897.2	4.196
897.4	4.590
897.6	4.463
897.8	3.666
898.0	3.445
898.2	3.566
898.4	3.663
898.6	3.285
898.8	4.398
899.0	5.233
899.2	5.716
899.4	5.548
899.6	4.077
899.8	2.537
900.0	1.582

