Sample:	'20211010A(EM)
File name:	G-NI 8.FDS
Run date:	'18:56:25, 06/19/2023
Operator:	Administrator
Comment:	'

Instrument
Model:	F-4700 FL Spectrophotometer
Serial number:	2019-001
ROM Version:	5J24010 00

Instrument parameters
Measurement type:	Wavelength scan
Scan mode:	Emission
Data mode:	Fluorescence
EX WL:	400.0 nm
EM  Start WL:	420.0 nm
EM  End WL:	800.0 nm
Scan speed:	1200 nm/min
Delay:	0.0 s
EX Slit:	10.0 nm
EM Slit:	10.0 nm
PMT Voltage:	500 V
Response:	0.002 s
Corrected spectra:	Off
Shutter control:	On

Processing performed
Savitsky-Golay smoothed
Smoothing order:	3
Number of points:	7
Number of times:	1

Peak integration
Integration method:	Rectangular
Sensitivity:	1
Threshold:	1.000

Peaks
No.	Start(nm)	Apex(nm)	End(nm)	Height(Data)	Valley(nm)	Valley(Data)
1	420.0	537.2	539.0	1872	539.0	1850
2	539.0	540.6	542.6	1869	542.6	1839
3	542.6	544.0	706.2	1850	706.2	35.48
4	706.2	706.8	711.0	36.74	711.0	30.08
5	711.0	711.8	713.0	31.44	713.0	28.90
6	713.0	713.6	718.0	30.05	718.0	23.96
7	718.0	719.0	737.8	25.33	737.8	11.77
8	737.8	738.4	740.8	12.95	740.8	11.08
9	740.8	741.4	754.2	12.14	754.2	7.191
10	754.2	754.8	800.0	8.314	800.0	2.750

Data points
nm	Data
420.0	1.236
420.2	1.181
420.4	1.199
420.6	1.253
420.8	1.291
421.0	1.324
421.2	1.246
421.4	1.185
421.6	1.242
421.8	1.260
422.0	1.346
422.2	1.245
422.4	1.193
422.6	1.170
422.8	1.127
423.0	1.304
423.2	1.512
423.4	1.481
423.6	1.486
423.8	1.298
424.0	1.134
424.2	1.035
424.4	1.155
424.6	1.255
424.8	1.443
425.0	1.486
425.2	1.587
425.4	1.390
425.6	1.496
425.8	1.458
426.0	1.518
426.2	1.461
426.4	1.406
426.6	1.393
426.8	1.486
427.0	1.447
427.2	1.474
427.4	1.259
427.6	1.091
427.8	1.082
428.0	1.084
428.2	1.079
428.4	1.149
428.6	1.107
428.8	1.109
429.0	1.202
429.2	1.191
429.4	1.180
429.6	1.212
429.8	1.203
430.0	1.273
430.2	1.410
430.4	1.515
430.6	1.545
430.8	1.602
431.0	1.424
431.2	1.379
431.4	1.270
431.6	1.359
431.8	1.315
432.0	1.335
432.2	1.139
432.4	1.164
432.6	1.207
432.8	1.281
433.0	1.275
433.2	1.313
433.4	1.330
433.6	1.368
433.8	1.536
434.0	1.656
434.2	1.524
434.4	1.410
434.6	1.318
434.8	1.173
435.0	1.169
435.2	1.261
435.4	1.221
435.6	1.188
435.8	1.157
436.0	1.158
436.2	1.274
436.4	1.360
436.6	1.408
436.8	1.504
437.0	1.448
437.2	1.306
437.4	1.273
437.6	1.184
437.8	1.097
438.0	1.126
438.2	1.167
438.4	1.292
438.6	1.394
438.8	1.523
439.0	1.631
439.2	1.542
439.4	1.484
439.6	1.361
439.8	1.221
440.0	1.161
440.2	1.187
440.4	1.180
440.6	1.298
440.8	1.347
441.0	1.509
441.2	1.455
441.4	1.337
441.6	1.174
441.8	1.111
442.0	1.164
442.2	1.332
442.4	1.253
442.6	1.173
442.8	1.224
443.0	1.252
443.2	1.383
443.4	1.536
443.6	1.533
443.8	1.482
444.0	1.409
444.2	1.308
444.4	1.230
444.6	1.332
444.8	1.615
445.0	1.655
445.2	1.508
445.4	1.422
445.6	1.421
445.8	1.559
446.0	1.762
446.2	1.652
446.4	1.485
446.6	1.325
446.8	1.301
447.0	1.256
447.2	1.316
447.4	1.283
447.6	1.378
447.8	1.394
448.0	1.415
448.2	1.409
448.4	1.513
448.6	1.466
448.8	1.596
449.0	1.531
449.2	1.489
449.4	1.473
449.6	1.482
449.8	1.444
450.0	1.471
450.2	1.520
450.4	1.634
450.6	1.568
450.8	1.548
451.0	1.434
451.2	1.465
451.4	1.632
451.6	1.691
451.8	1.587
452.0	1.421
452.2	1.359
452.4	1.356
452.6	1.372
452.8	1.252
453.0	1.306
453.2	1.287
453.4	1.403
453.6	1.425
453.8	1.461
454.0	1.434
454.2	1.518
454.4	1.415
454.6	1.383
454.8	1.288
455.0	1.221
455.2	1.457
455.4	1.614
455.6	1.678
455.8	1.805
456.0	1.649
456.2	1.493
456.4	1.529
456.6	1.481
456.8	1.597
457.0	1.860
457.2	1.874
457.4	1.888
457.6	1.908
457.8	1.744
458.0	1.721
458.2	1.765
458.4	1.699
458.6	1.631
458.8	1.603
459.0	1.589
459.2	1.676
459.4	1.788
459.6	1.817
459.8	1.641
460.0	1.576
460.2	1.582
460.4	1.691
460.6	1.839
460.8	1.909
461.0	2.041
461.2	2.145
461.4	2.040
461.6	1.953
461.8	1.833
462.0	1.861
462.2	1.976
462.4	1.943
462.6	1.861
462.8	1.774
463.0	1.874
463.2	2.026
463.4	1.922
463.6	1.970
463.8	2.178
464.0	2.297
464.2	2.451
464.4	2.437
464.6	2.175
464.8	2.133
465.0	2.218
465.2	2.345
465.4	2.377
465.6	2.634
465.8	2.600
466.0	2.600
466.2	2.533
466.4	2.720
466.6	2.616
466.8	2.762
467.0	2.721
467.2	2.768
467.4	2.856
467.6	3.145
467.8	3.124
468.0	3.043
468.2	3.073
468.4	3.192
468.6	3.363
468.8	3.565
469.0	3.772
469.2	3.901
469.4	4.076
469.6	4.369
469.8	4.318
470.0	4.253
470.2	4.460
470.4	4.695
470.6	4.938
470.8	5.120
471.0	5.180
471.2	5.268
471.4	5.509
471.6	5.655
471.8	5.747
472.0	5.851
472.2	6.090
472.4	6.122
472.6	6.559
472.8	6.775
473.0	6.856
473.2	7.195
473.4	7.467
473.6	7.182
473.8	7.590
474.0	8.116
474.2	8.231
474.4	8.589
474.6	9.180
474.8	9.280
475.0	9.464
475.2	9.668
475.4	10.00
475.6	10.01
475.8	10.83
476.0	11.57
476.2	11.91
476.4	12.37
476.6	13.31
476.8	13.36
477.0	14.07
477.2	14.42
477.4	14.74
477.6	15.08
477.8	15.65
478.0	15.82
478.2	16.07
478.4	16.54
478.6	17.45
478.8	18.66
479.0	19.77
479.2	20.30
479.4	20.56
479.6	21.25
479.8	22.12
480.0	23.36
480.2	24.17
480.4	24.14
480.6	24.65
480.8	25.34
481.0	26.23
481.2	27.68
481.4	29.29
481.6	30.48
481.8	31.88
482.0	32.79
482.2	33.25
482.4	34.43
482.6	34.94
482.8	35.83
483.0	37.08
483.2	38.61
483.4	40.70
483.6	42.87
483.8	44.67
484.0	46.29
484.2	47.77
484.4	49.08
484.6	50.93
484.8	52.85
485.0	55.85
485.2	57.85
485.4	59.59
485.6	60.15
485.8	60.98
486.0	62.57
486.2	65.15
486.4	68.32
486.6	71.42
486.8	74.28
487.0	76.53
487.2	77.98
487.4	80.02
487.6	82.35
487.8	84.18
488.0	87.31
488.2	90.63
488.4	93.88
488.6	98.11
488.8	101.6
489.0	104.6
489.2	107.9
489.4	109.7
489.6	112.0
489.8	114.2
490.0	118.9
490.2	124.3
490.4	128.9
490.6	131.2
490.8	134.3
491.0	136.8
491.2	140.8
491.4	145.0
491.6	149.7
491.8	154.2
492.0	160.1
492.2	165.1
492.4	169.4
492.6	173.3
492.8	178.7
493.0	184.3
493.2	188.7
493.4	192.4
493.6	197.9
493.8	204.1
494.0	211.0
494.2	217.5
494.4	220.3
494.6	223.9
494.8	230.4
495.0	239.0
495.2	245.5
495.4	252.7
495.6	256.9
495.8	263.5
496.0	270.7
496.2	276.8
496.4	282.1
496.6	290.3
496.8	297.0
497.0	303.8
497.2	308.7
497.4	313.6
497.6	321.8
497.8	332.1
498.0	341.7
498.2	350.0
498.4	356.1
498.6	362.9
498.8	370.1
499.0	378.2
499.2	385.7
499.4	394.4
499.6	403.0
499.8	411.6
500.0	419.8
500.2	429.0
500.4	436.3
500.6	445.8
500.8	455.4
501.0	465.0
501.2	474.0
501.4	481.8
501.6	491.1
501.8	501.6
502.0	512.1
502.2	522.9
502.4	533.8
502.6	540.7
502.8	551.6
503.0	561.7
503.2	572.2
503.4	582.5
503.6	592.6
503.8	601.6
504.0	610.6
504.2	619.7
504.4	631.2
504.6	642.1
504.8	651.1
505.0	662.1
505.2	671.5
505.4	681.4
505.6	697.2
505.8	711.7
506.0	723.5
506.2	734.9
506.4	744.0
506.6	751.2
506.8	763.5
507.0	775.7
507.2	785.7
507.4	795.8
507.6	807.6
507.8	817.7
508.0	829.0
508.2	842.9
508.4	853.8
508.6	866.5
508.8	876.9
509.0	885.7
509.2	897.3
509.4	910.1
509.6	924.3
509.8	937.6
510.0	947.7
510.2	958.5
510.4	971.2
510.6	980.5
510.8	992.6
511.0	1004
511.2	1021
511.4	1030
511.6	1038
511.8	1047
512.0	1059
512.2	1072
512.4	1090
512.6	1100
512.8	1110
513.0	1116
513.2	1126
513.4	1136
513.6	1151
513.8	1165
514.0	1179
514.2	1189
514.4	1198
514.6	1205
514.8	1216
515.0	1223
515.2	1235
515.4	1247
515.6	1260
515.8	1273
516.0	1285
516.2	1291
516.4	1300
516.6	1307
516.8	1316
517.0	1327
517.2	1338
517.4	1349
517.6	1362
517.8	1376
518.0	1386
518.2	1392
518.4	1399
518.6	1407
518.8	1419
519.0	1430
519.2	1438
519.4	1442
519.6	1450
519.8	1462
520.0	1471
520.2	1479
520.4	1490
520.6	1496
520.8	1508
521.0	1520
521.2	1531
521.4	1541
521.6	1551
521.8	1554
522.0	1560
522.2	1565
522.4	1572
522.6	1582
522.8	1591
523.0	1601
523.2	1608
523.4	1613
523.6	1617
523.8	1621
524.0	1624
524.2	1630
524.4	1639
524.6	1647
524.8	1660
525.0	1668
525.2	1671
525.4	1675
525.6	1682
525.8	1684
526.0	1692
526.2	1697
526.4	1702
526.6	1706
526.8	1715
527.0	1720
527.2	1728
527.4	1731
527.6	1735
527.8	1739
528.0	1742
528.2	1749
528.4	1759
528.6	1758
528.8	1764
529.0	1764
529.2	1768
529.4	1774
529.6	1781
529.8	1781
530.0	1788
530.2	1791
530.4	1800
530.6	1800
530.8	1800
531.0	1800
531.2	1798
531.4	1799
531.6	1805
531.8	1807
532.0	1815
532.2	1821
532.4	1819
532.6	1818
532.8	1826
533.0	1830
533.2	1837
533.4	1836
533.6	1842
533.8	1841
534.0	1844
534.2	1844
534.4	1848
534.6	1848
534.8	1855
535.0	1858
535.2	1852
535.4	1848
535.6	1853
535.8	1855
536.0	1859
536.2	1856
536.4	1849
536.6	1852
536.8	1859
537.0	1868
537.2	1872
537.4	1870
537.6	1868
537.8	1867
538.0	1869
538.2	1870
538.4	1868
538.6	1866
538.8	1858
539.0	1850
539.2	1854
539.4	1859
539.6	1863
539.8	1867
540.0	1865
540.2	1859
540.4	1867
540.6	1869
540.8	1863
541.0	1860
541.2	1856
541.4	1850
541.6	1854
541.8	1852
542.0	1848
542.2	1844
542.4	1842
542.6	1839
542.8	1840
543.0	1842
543.2	1846
543.4	1850
543.6	1850
543.8	1847
544.0	1850
544.2	1846
544.4	1841
544.6	1837
544.8	1829
545.0	1826
545.2	1830
545.4	1836
545.6	1837
545.8	1838
546.0	1828
546.2	1821
546.4	1817
546.6	1819
546.8	1815
547.0	1814
547.2	1809
547.4	1804
547.6	1806
547.8	1808
548.0	1807
548.2	1802
548.4	1799
548.6	1801
548.8	1798
549.0	1797
549.2	1788
549.4	1781
549.6	1779
549.8	1780
550.0	1773
550.2	1771
550.4	1761
550.6	1759
550.8	1759
551.0	1756
551.2	1757
551.4	1757
551.6	1753
551.8	1748
552.0	1741
552.2	1734
552.4	1733
552.6	1734
552.8	1729
553.0	1726
553.2	1729
553.4	1724
553.6	1724
553.8	1723
554.0	1715
554.2	1709
554.4	1704
554.6	1694
554.8	1691
555.0	1692
555.2	1697
555.4	1698
555.6	1698
555.8	1694
556.0	1686
556.2	1682
556.4	1677
556.6	1673
556.8	1670
557.0	1668
557.2	1661
557.4	1655
557.6	1654
557.8	1656
558.0	1653
558.2	1649
558.4	1645
558.6	1637
558.8	1633
559.0	1631
559.2	1623
559.4	1617
559.6	1614
559.8	1608
560.0	1605
560.2	1606
560.4	1599
560.6	1597
560.8	1592
561.0	1590
561.2	1588
561.4	1585
561.6	1581
561.8	1580
562.0	1577
562.2	1572
562.4	1566
562.6	1554
562.8	1550
563.0	1548
563.2	1547
563.4	1543
563.6	1538
563.8	1529
564.0	1523
564.2	1518
564.4	1514
564.6	1510
564.8	1506
565.0	1498
565.2	1496
565.4	1492
565.6	1488
565.8	1486
566.0	1482
566.2	1475
566.4	1473
566.6	1470
566.8	1465
567.0	1459
567.2	1456
567.4	1453
567.6	1450
567.8	1450
568.0	1448
568.2	1439
568.4	1435
568.6	1426
568.8	1422
569.0	1420
569.2	1418
569.4	1410
569.6	1404
569.8	1392
570.0	1389
570.2	1386
570.4	1383
570.6	1378
570.8	1376
571.0	1371
571.2	1366
571.4	1359
571.6	1354
571.8	1347
572.0	1346
572.2	1344
572.4	1341
572.6	1336
572.8	1329
573.0	1321
573.2	1315
573.4	1310
573.6	1309
573.8	1306
574.0	1301
574.2	1299
574.4	1296
574.6	1295
574.8	1289
575.0	1281
575.2	1272
575.4	1267
575.6	1267
575.8	1267
576.0	1263
576.2	1260
576.4	1255
576.6	1246
576.8	1240
577.0	1229
577.2	1225
577.4	1220
577.6	1224
577.8	1219
578.0	1212
578.2	1206
578.4	1202
578.6	1192
578.8	1192
579.0	1190
579.2	1187
579.4	1187
579.6	1184
579.8	1175
580.0	1169
580.2	1164
580.4	1159
580.6	1157
580.8	1159
581.0	1156
581.2	1152
581.4	1145
581.6	1138
581.8	1135
582.0	1131
582.2	1126
582.4	1119
582.6	1115
582.8	1110
583.0	1107
583.2	1101
583.4	1098
583.6	1093
583.8	1091
584.0	1088
584.2	1085
584.4	1079
584.6	1075
584.8	1070
585.0	1063
585.2	1059
585.4	1051
585.6	1048
585.8	1046
586.0	1044
586.2	1041
586.4	1036
586.6	1027
586.8	1023
587.0	1021
587.2	1019
587.4	1017
587.6	1015
587.8	1010
588.0	1004
588.2	999.9
588.4	994.7
588.6	986.5
588.8	983.4
589.0	978.9
589.2	974.3
589.4	971.0
589.6	967.5
589.8	962.3
590.0	958.4
590.2	954.8
590.4	952.8
590.6	949.9
590.8	943.0
591.0	937.2
591.2	932.6
591.4	931.6
591.6	932.3
591.8	928.7
592.0	921.0
592.2	914.8
592.4	910.7
592.6	910.9
592.8	908.7
593.0	902.1
593.2	894.7
593.4	890.7
593.6	887.5
593.8	886.7
594.0	882.5
594.2	878.4
594.4	874.2
594.6	871.2
594.8	867.6
595.0	864.7
595.2	862.0
595.4	858.1
595.6	856.2
595.8	854.4
596.0	850.2
596.2	846.9
596.4	841.0
596.6	832.9
596.8	829.2
597.0	828.3
597.2	827.6
597.4	827.6
597.6	823.4
597.8	815.9
598.0	809.6
598.2	803.8
598.4	801.6
598.6	800.7
598.8	800.1
599.0	795.9
599.2	791.7
599.4	789.2
599.6	787.4
599.8	784.3
600.0	782.1
600.2	773.1
600.4	763.4
600.6	761.4
600.8	759.1
601.0	756.5
601.2	756.8
601.4	752.2
601.6	748.8
601.8	746.9
602.0	743.2
602.2	735.6
602.4	730.9
602.6	727.7
602.8	726.5
603.0	725.7
603.2	721.0
603.4	716.9
603.6	714.5
603.8	709.1
604.0	704.5
604.2	701.4
604.4	696.1
604.6	697.0
604.8	699.9
605.0	699.7
605.2	697.9
605.4	691.6
605.6	684.4
605.8	678.3
606.0	672.9
606.2	670.7
606.4	670.1
606.6	669.7
606.8	669.2
607.0	666.4
607.2	658.4
607.4	653.7
607.6	649.7
607.8	647.8
608.0	646.7
608.2	644.9
608.4	641.9
608.6	641.0
608.8	634.5
609.0	629.5
609.2	625.9
609.4	624.2
609.6	624.1
609.8	621.8
610.0	614.8
610.2	613.4
610.4	609.2
610.6	605.1
610.8	600.8
611.0	593.7
611.2	589.6
611.4	591.6
611.6	590.4
611.8	589.3
612.0	587.8
612.2	585.4
612.4	581.5
612.6	577.2
612.8	575.1
613.0	574.1
613.2	570.2
613.4	569.2
613.6	566.7
613.8	561.5
614.0	560.7
614.2	557.9
614.4	550.2
614.6	546.3
614.8	545.3
615.0	541.9
615.2	542.5
615.4	541.0
615.6	538.9
615.8	536.1
616.0	532.4
616.2	526.3
616.4	521.0
616.6	519.1
616.8	518.7
617.0	515.6
617.2	517.1
617.4	514.0
617.6	511.0
617.8	508.5
618.0	503.4
618.2	496.7
618.4	497.0
618.6	494.9
618.8	493.9
619.0	493.0
619.2	490.2
619.4	488.3
619.6	484.3
619.8	481.3
620.0	477.9
620.2	474.9
620.4	471.8
620.6	471.2
620.8	467.5
621.0	464.4
621.2	464.6
621.4	463.0
621.6	461.5
621.8	461.1
622.0	458.7
622.2	454.3
622.4	451.3
622.6	448.8
622.8	445.6
623.0	444.7
623.2	441.2
623.4	438.7
623.6	437.4
623.8	437.2
624.0	434.9
624.2	432.1
624.4	429.1
624.6	425.4
624.8	423.6
625.0	421.6
625.2	418.6
625.4	415.4
625.6	415.0
625.8	411.4
626.0	408.0
626.2	404.2
626.4	402.4
626.6	400.7
626.8	398.6
627.0	397.8
627.2	395.7
627.4	392.8
627.6	391.1
627.8	390.0
628.0	387.7
628.2	387.2
628.4	386.1
628.6	383.1
628.8	378.6
629.0	373.0
629.2	370.4
629.4	368.3
629.6	368.1
629.8	366.5
630.0	364.2
630.2	361.8
630.4	361.4
630.6	359.2
630.8	357.2
631.0	354.4
631.2	351.3
631.4	347.7
631.6	347.3
631.8	346.5
632.0	346.1
632.2	345.3
632.4	343.5
632.6	338.4
632.8	337.9
633.0	335.2
633.2	333.0
633.4	328.5
633.6	328.4
633.8	326.8
634.0	326.5
634.2	325.3
634.4	322.2
634.6	317.6
634.8	318.0
635.0	316.7
635.2	316.9
635.4	316.3
635.6	312.8
635.8	309.2
636.0	306.7
636.2	303.9
636.4	304.7
636.6	304.5
636.8	302.9
637.0	300.8
637.2	296.9
637.4	294.9
637.6	294.6
637.8	292.7
638.0	291.9
638.2	290.4
638.4	286.3
638.6	286.2
638.8	284.5
639.0	281.9
639.2	280.7
639.4	278.9
639.6	275.1
639.8	274.5
640.0	273.5
640.2	272.1
640.4	273.3
640.6	274.3
640.8	271.1
641.0	269.2
641.2	265.9
641.4	262.8
641.6	265.3
641.8	265.8
642.0	264.1
642.2	261.7
642.4	258.3
642.6	256.0
642.8	254.8
643.0	251.7
643.2	248.3
643.4	246.2
643.6	246.0
643.8	245.8
644.0	244.7
644.2	241.9
644.4	238.2
644.6	237.3
644.8	236.8
645.0	236.5
645.2	236.0
645.4	233.5
645.6	231.9
645.8	230.1
646.0	226.8
646.2	227.2
646.4	227.3
646.6	226.9
646.8	225.6
647.0	223.5
647.2	219.3
647.4	218.8
647.6	216.2
647.8	214.4
648.0	213.5
648.2	213.9
648.4	213.0
648.6	213.4
648.8	211.3
649.0	209.5
649.2	208.3
649.4	207.9
649.6	206.3
649.8	206.0
650.0	205.3
650.2	204.4
650.4	201.8
650.6	200.2
650.8	197.7
651.0	195.7
651.2	195.2
651.4	194.7
651.6	193.5
651.8	192.0
652.0	189.5
652.2	188.0
652.4	187.7
652.6	188.7
652.8	188.6
653.0	187.1
653.2	184.6
653.4	183.8
653.6	181.8
653.8	182.5
654.0	180.6
654.2	179.0
654.4	176.8
654.6	175.6
654.8	174.0
655.0	173.8
655.2	172.0
655.4	171.1
655.6	170.0
655.8	170.0
656.0	169.8
656.2	167.9
656.4	165.3
656.6	162.2
656.8	161.3
657.0	161.6
657.2	161.7
657.4	161.1
657.6	161.2
657.8	160.1
658.0	159.0
658.2	157.7
658.4	156.5
658.6	155.2
658.8	155.0
659.0	154.6
659.2	154.4
659.4	153.5
659.6	151.7
659.8	150.2
660.0	148.5
660.2	147.6
660.4	147.8
660.6	146.4
660.8	144.4
661.0	143.7
661.2	141.7
661.4	141.6
661.6	142.2
661.8	142.1
662.0	142.2
662.2	141.1
662.4	138.4
662.6	136.3
662.8	135.4
663.0	135.6
663.2	135.3
663.4	134.3
663.6	132.6
663.8	130.4
664.0	129.0
664.2	130.1
664.4	130.9
664.6	131.3
664.8	131.2
665.0	129.6
665.2	127.1
665.4	125.8
665.6	124.9
665.8	124.3
666.0	124.5
666.2	123.2
666.4	121.8
666.6	121.2
666.8	119.7
667.0	119.7
667.2	120.1
667.4	118.2
667.6	117.5
667.8	116.1
668.0	115.3
668.2	114.8
668.4	115.3
668.6	115.2
668.8	115.7
669.0	113.8
669.2	113.1
669.4	111.0
669.6	110.3
669.8	109.3
670.0	108.8
670.2	107.6
670.4	108.5
670.6	108.1
670.8	108.2
671.0	106.8
671.2	105.9
671.4	104.1
671.6	103.2
671.8	102.1
672.0	101.7
672.2	101.3
672.4	101.4
672.6	100.8
672.8	99.09
673.0	99.05
673.2	97.24
673.4	96.08
673.6	95.47
673.8	95.64
674.0	95.16
674.2	96.50
674.4	95.74
674.6	94.73
674.8	94.34
675.0	92.96
675.2	92.05
675.4	90.93
675.6	89.68
675.8	89.14
676.0	89.89
676.2	88.83
676.4	87.90
676.6	86.09
676.8	85.99
677.0	87.41
677.2	88.98
677.4	88.28
677.6	86.66
677.8	84.68
678.0	84.07
678.2	83.40
678.4	84.13
678.6	84.10
678.8	82.85
679.0	81.81
679.2	81.63
679.4	79.91
679.6	79.57
679.8	78.91
680.0	77.33
680.2	77.18
680.4	77.63
680.6	76.35
680.8	75.53
681.0	75.07
681.2	75.03
681.4	75.16
681.6	74.59
681.8	73.17
682.0	72.36
682.2	72.68
682.4	73.39
682.6	73.50
682.8	72.41
683.0	71.35
683.2	70.07
683.4	68.71
683.6	68.55
683.8	68.51
684.0	68.67
684.2	69.89
684.4	69.79
684.6	68.56
684.8	68.15
685.0	67.28
685.2	67.48
685.4	67.16
685.6	66.37
685.8	65.29
686.0	65.19
686.2	64.76
686.4	64.71
686.6	63.23
686.8	61.94
687.0	60.39
687.2	61.25
687.4	62.57
687.6	63.11
687.8	62.32
688.0	61.48
688.2	59.26
688.4	59.48
688.6	60.11
688.8	60.09
689.0	59.94
689.2	59.20
689.4	57.77
689.6	58.20
689.8	57.39
690.0	57.71
690.2	57.92
690.4	57.44
690.6	56.40
690.8	56.31
691.0	55.08
691.2	55.22
691.4	54.89
691.6	54.70
691.8	53.76
692.0	53.26
692.2	52.72
692.4	52.51
692.6	52.27
692.8	52.76
693.0	53.13
693.2	52.10
693.4	51.16
693.6	49.94
693.8	49.59
694.0	49.94
694.2	50.07
694.4	49.39
694.6	49.05
694.8	48.82
695.0	49.88
695.2	49.82
695.4	49.52
695.6	48.75
695.8	47.86
696.0	47.28
696.2	47.54
696.4	46.80
696.6	46.23
696.8	45.61
697.0	45.59
697.2	45.40
697.4	45.69
697.6	44.90
697.8	44.84
698.0	44.28
698.2	43.82
698.4	42.88
698.6	42.61
698.8	42.79
699.0	44.14
699.2	44.35
699.4	44.01
699.6	42.75
699.8	41.75
700.0	41.56
700.2	42.12
700.4	42.00
700.6	42.16
700.8	42.22
701.0	42.41
701.2	41.72
701.4	41.01
701.6	40.41
701.8	40.33
702.0	40.58
702.2	41.43
702.4	41.19
702.6	40.03
702.8	39.54
703.0	38.92
703.2	38.72
703.4	39.00
703.6	38.82
703.8	37.92
704.0	37.61
704.2	37.77
704.4	38.21
704.6	38.08
704.8	37.96
705.0	36.87
705.2	36.03
705.4	35.74
705.6	35.96
705.8	35.80
706.0	35.97
706.2	35.48
706.4	35.65
706.6	36.49
706.8	36.74
707.0	36.16
707.2	35.38
707.4	34.70
707.6	35.21
707.8	35.57
708.0	34.70
708.2	33.89
708.4	33.07
708.6	32.04
708.8	32.78
709.0	32.76
709.2	32.85
709.4	32.77
709.6	32.73
709.8	32.22
710.0	32.30
710.2	32.06
710.4	32.12
710.6	31.24
710.8	30.58
711.0	30.08
711.2	30.36
711.4	30.61
711.6	31.30
711.8	31.44
712.0	31.42
712.2	30.70
712.4	30.34
712.6	29.33
712.8	28.95
713.0	28.90
713.2	29.38
713.4	29.64
713.6	30.05
713.8	30.04
714.0	29.60
714.2	29.15
714.4	28.08
714.6	27.86
714.8	27.57
715.0	27.68
715.2	27.47
715.4	27.26
715.6	26.41
715.8	25.96
716.0	25.58
716.2	25.90
716.4	25.86
716.6	26.10
716.8	26.54
717.0	26.56
717.2	26.45
717.4	25.55
717.6	24.59
717.8	24.21
718.0	23.96
718.2	24.12
718.4	24.42
718.6	24.41
718.8	24.71
719.0	25.33
719.2	25.17
719.4	24.67
719.6	24.01
719.8	23.02
720.0	22.45
720.2	22.69
720.4	22.86
720.6	22.80
720.8	22.59
721.0	22.96
721.2	22.79
721.4	22.81
721.6	22.47
721.8	22.11
722.0	22.03
722.2	22.48
722.4	21.96
722.6	22.18
722.8	21.56
723.0	21.75
723.2	21.69
723.4	21.52
723.6	21.29
723.8	21.12
724.0	20.47
724.2	20.47
724.4	19.37
724.6	18.91
724.8	19.05
725.0	19.11
725.2	19.32
725.4	19.61
725.6	18.99
725.8	19.26
726.0	19.12
726.2	19.06
726.4	19.06
726.6	18.59
726.8	18.08
727.0	18.44
727.2	18.00
727.4	17.85
727.6	18.17
727.8	18.05
728.0	18.16
728.2	18.22
728.4	17.76
728.6	17.38
728.8	17.44
729.0	17.82
729.2	17.95
729.4	17.87
729.6	18.04
729.8	17.80
730.0	17.62
730.2	17.43
730.4	16.98
730.6	16.78
730.8	17.13
731.0	16.88
731.2	16.20
731.4	15.51
731.6	15.26
731.8	15.15
732.0	15.14
732.2	15.43
732.4	15.17
732.6	15.16
732.8	15.28
733.0	15.15
733.2	14.92
733.4	14.87
733.6	14.71
733.8	14.24
734.0	14.02
734.2	13.89
734.4	14.01
734.6	14.20
734.8	14.70
735.0	14.68
735.2	14.73
735.4	14.40
735.6	14.01
735.8	13.74
736.0	13.86
736.2	13.73
736.4	14.18
736.6	14.16
736.8	13.70
737.0	13.60
737.2	13.12
737.4	12.33
737.6	12.26
737.8	11.77
738.0	11.94
738.2	12.53
738.4	12.95
738.6	12.89
738.8	12.68
739.0	12.47
739.2	12.64
739.4	12.54
739.6	12.52
739.8	12.12
740.0	11.81
740.2	11.78
740.4	11.45
740.6	11.13
740.8	11.08
741.0	11.44
741.2	11.81
741.4	12.14
741.6	11.98
741.8	11.52
742.0	11.06
742.2	11.21
742.4	11.18
742.6	10.87
742.8	10.72
743.0	10.63
743.2	10.52
743.4	10.93
743.6	10.97
743.8	10.91
744.0	10.94
744.2	10.82
744.4	10.49
744.6	10.45
744.8	10.12
745.0	10.24
745.2	10.10
745.4	9.986
745.6	9.655
745.8	9.739
746.0	9.242
746.2	9.527
746.4	9.462
746.6	9.456
746.8	9.383
747.0	9.527
747.2	9.204
747.4	9.440
747.6	9.505
747.8	9.186
748.0	8.977
748.2	9.218
748.4	9.411
748.6	9.656
748.8	9.676
749.0	9.136
749.2	8.852
749.4	8.960
749.6	9.177
749.8	9.151
750.0	9.054
750.2	8.804
750.4	8.781
750.6	8.781
750.8	8.795
751.0	8.202
751.2	7.845
751.4	7.730
751.6	7.848
751.8	8.190
752.0	8.230
752.2	7.979
752.4	8.139
752.6	8.066
752.8	8.097
753.0	8.040
753.2	8.066
753.4	8.254
753.6	8.314
753.8	7.691
754.0	7.405
754.2	7.191
754.4	7.695
754.6	8.288
754.8	8.314
755.0	7.945
755.2	7.458
755.4	7.234
755.6	6.795
755.8	6.953
756.0	7.190
756.2	7.204
756.4	6.926
756.6	6.868
756.8	6.493
757.0	6.515
757.2	6.731
757.4	6.841
757.6	6.889
757.8	6.972
758.0	7.286
758.2	7.157
758.4	6.940
758.6	6.827
758.8	6.477
759.0	6.218
759.2	6.343
759.4	6.569
759.6	6.754
759.8	6.885
760.0	6.805
760.2	6.629
760.4	6.425
760.6	6.249
760.8	6.212
761.0	6.030
761.2	6.226
761.4	6.444
761.6	6.425
761.8	6.242
762.0	6.552
762.2	6.490
762.4	6.696
762.6	6.632
762.8	6.262
763.0	5.882
763.2	5.802
763.4	5.527
763.6	5.473
763.8	5.190
764.0	5.038
764.2	5.092
764.4	5.445
764.6	5.584
764.8	5.646
765.0	5.709
765.2	5.432
765.4	5.093
765.6	5.027
765.8	4.875
766.0	4.940
766.2	5.283
766.4	5.252
766.6	5.273
766.8	5.357
767.0	5.329
767.2	5.375
767.4	5.324
767.6	5.228
767.8	5.129
768.0	5.006
768.2	4.762
768.4	4.915
768.6	5.184
768.8	5.464
769.0	5.195
769.2	4.836
769.4	4.506
769.6	4.640
769.8	4.785
770.0	5.068
770.2	5.008
770.4	4.743
770.6	4.635
770.8	4.575
771.0	4.595
771.2	4.703
771.4	4.583
771.6	4.469
771.8	4.335
772.0	4.249
772.2	4.348
772.4	4.367
772.6	4.445
772.8	4.526
773.0	4.392
773.2	4.382
773.4	4.231
773.6	4.035
773.8	4.205
774.0	4.197
774.2	4.334
774.4	4.497
774.6	4.706
774.8	4.421
775.0	4.165
775.2	3.977
775.4	4.102
775.6	4.303
775.8	4.638
776.0	4.402
776.2	4.032
776.4	3.911
776.6	4.046
776.8	4.180
777.0	4.355
777.2	3.983
777.4	3.552
777.6	3.339
777.8	3.648
778.0	3.792
778.2	3.990
778.4	3.979
778.6	3.715
778.8	3.666
779.0	3.769
779.2	3.732
779.4	3.687
779.6	3.911
779.8	3.830
780.0	4.105
780.2	4.111
780.4	4.064
780.6	4.044
780.8	4.114
781.0	4.028
781.2	4.221
781.4	4.073
781.6	3.880
781.8	3.750
782.0	3.557
782.2	3.406
782.4	3.640
782.6	3.705
782.8	3.732
783.0	3.759
783.2	3.622
783.4	3.668
783.6	3.922
783.8	3.930
784.0	3.938
784.2	4.032
784.4	3.728
784.6	3.611
784.8	3.465
785.0	3.222
785.2	3.207
785.4	3.422
785.6	3.420
785.8	3.539
786.0	3.582
786.2	3.482
786.4	3.363
786.6	3.391
786.8	3.463
787.0	3.385
787.2	3.435
787.4	3.315
787.6	3.139
787.8	3.202
788.0	3.510
788.2	3.532
788.4	3.808
788.6	3.636
788.8	3.290
789.0	3.158
789.2	3.211
789.4	3.248
789.6	3.394
789.8	3.233
790.0	3.122
790.2	3.286
790.4	3.535
790.6	3.740
790.8	3.697
791.0	3.239
791.2	2.971
791.4	3.124
791.6	3.399
791.8	3.412
792.0	3.312
792.2	3.168
792.4	3.130
792.6	3.154
792.8	3.044
793.0	3.061
793.2	3.208
793.4	3.349
793.6	3.264
793.8	3.109
794.0	3.078
794.2	3.188
794.4	3.564
794.6	3.479
794.8	3.441
795.0	3.322
795.2	3.606
795.4	3.530
795.6	3.555
795.8	3.314
796.0	3.403
796.2	3.095
796.4	3.212
796.6	3.173
796.8	3.023
797.0	3.017
797.2	3.126
797.4	3.119
797.6	3.308
797.8	3.469
798.0	3.560
798.2	3.434
798.4	3.243
798.6	3.135
798.8	3.043
799.0	3.222
799.2	3.371
799.4	3.370
799.6	3.317
799.8	3.126
800.0	2.750

