Sample:	'20211010A(EM)
File name:	G-CDs 6.FDS
Run date:	'10:35:59, 06/11/2023
Operator:	Administrator
Comment:	'

Instrument
Model:	F-4700 FL Spectrophotometer
Serial number:	2019-001
ROM Version:	5J24010 00

Instrument parameters
Measurement type:	Wavelength scan
Scan mode:	Emission
Data mode:	Fluorescence
EX WL:	400.0 nm
EM  Start WL:	420.0 nm
EM  End WL:	800.0 nm
Scan speed:	1200 nm/min
Delay:	0.0 s
EX Slit:	10.0 nm
EM Slit:	10.0 nm
PMT Voltage:	450 V
Response:	0.002 s
Corrected spectra:	Off
Shutter control:	On

Processing performed
Savitsky-Golay smoothed
Smoothing order:	3
Number of points:	7
Number of times:	1

Peak integration
Integration method:	Rectangular
Sensitivity:	1
Threshold:	1.000

Peaks
No.	Start(nm)	Apex(nm)	End(nm)	Height(Data)	Valley(nm)	Valley(Data)
1	420.0	540.4	542.0	7077	542.0	7059
2	542.0	542.6	800.0	7078	800.0	4.348

Data points
nm	Data
420.0	4.644
420.2	4.455
420.4	4.460
420.6	4.554
420.8	4.519
421.0	4.602
421.2	4.461
421.4	4.448
421.6	4.394
421.8	4.659
422.0	4.674
422.2	4.698
422.4	4.668
422.6	4.780
422.8	4.589
423.0	4.677
423.2	4.586
423.4	4.555
423.6	4.650
423.8	4.652
424.0	4.471
424.2	4.369
424.4	4.416
424.6	4.506
424.8	4.652
425.0	4.595
425.2	4.550
425.4	4.502
425.6	4.518
425.8	4.610
426.0	4.706
426.2	4.690
426.4	4.693
426.6	4.617
426.8	4.426
427.0	4.348
427.2	4.356
427.4	4.427
427.6	4.574
427.8	4.631
428.0	4.647
428.2	4.618
428.4	4.642
428.6	4.643
428.8	4.732
429.0	4.782
429.2	4.824
429.4	4.850
429.6	4.840
429.8	4.740
430.0	4.689
430.2	4.756
430.4	4.851
430.6	4.889
430.8	4.941
431.0	5.041
431.2	5.118
431.4	5.110
431.6	5.058
431.8	4.768
432.0	4.728
432.2	4.845
432.4	5.114
432.6	5.088
432.8	5.054
433.0	4.955
433.2	4.893
433.4	4.930
433.6	5.044
433.8	5.096
434.0	5.115
434.2	5.204
434.4	5.230
434.6	5.247
434.8	5.409
435.0	5.581
435.2	5.574
435.4	5.700
435.6	5.790
435.8	5.680
436.0	5.763
436.2	5.746
436.4	5.647
436.6	5.675
436.8	5.735
437.0	5.763
437.2	5.840
437.4	6.003
437.6	6.190
437.8	6.303
438.0	6.300
438.2	6.194
438.4	6.131
438.6	6.076
438.8	6.269
439.0	6.438
439.2	6.612
439.4	6.640
439.6	6.711
439.8	6.658
440.0	6.710
440.2	6.794
440.4	7.143
440.6	7.360
440.8	7.539
441.0	7.674
441.2	7.637
441.4	7.569
441.6	7.467
441.8	7.368
442.0	7.426
442.2	7.591
442.4	7.781
442.6	8.060
442.8	8.025
443.0	8.042
443.2	8.167
443.4	8.149
443.6	8.010
443.8	8.097
444.0	8.202
444.2	8.400
444.4	8.434
444.6	8.521
444.8	8.454
445.0	8.699
445.2	8.881
445.4	9.166
445.6	9.105
445.8	9.101
446.0	9.038
446.2	8.996
446.4	8.898
446.6	9.074
446.8	9.386
447.0	9.625
447.2	9.846
447.4	9.863
447.6	9.809
447.8	9.557
448.0	9.750
448.2	9.787
448.4	9.823
448.6	9.891
448.8	9.900
449.0	9.836
449.2	10.06
449.4	9.970
449.6	9.740
449.8	9.803
450.0	10.01
450.2	10.27
450.4	10.67
450.6	10.54
450.8	10.15
451.0	10.06
451.2	10.09
451.4	10.21
451.6	10.61
451.8	10.78
452.0	10.65
452.2	10.60
452.4	10.47
452.6	10.62
452.8	10.67
453.0	10.74
453.2	10.69
453.4	10.69
453.6	10.71
453.8	10.90
454.0	11.12
454.2	11.16
454.4	11.22
454.6	11.28
454.8	11.12
455.0	10.89
455.2	11.10
455.4	11.07
455.6	11.15
455.8	11.57
456.0	11.62
456.2	11.67
456.4	11.85
456.6	11.99
456.8	12.07
457.0	11.93
457.2	11.50
457.4	11.45
457.6	11.71
457.8	12.20
458.0	12.48
458.2	12.35
458.4	12.14
458.6	12.30
458.8	12.60
459.0	12.89
459.2	12.88
459.4	13.02
459.6	13.10
459.8	13.41
460.0	13.51
460.2	13.69
460.4	13.55
460.6	13.63
460.8	13.90
461.0	14.34
461.2	14.65
461.4	14.83
461.6	15.00
461.8	15.27
462.0	15.61
462.2	16.11
462.4	16.55
462.6	16.63
462.8	16.72
463.0	16.81
463.2	17.04
463.4	17.62
463.6	18.13
463.8	18.32
464.0	18.55
464.2	18.98
464.4	19.57
464.6	20.44
464.8	20.95
465.0	20.96
465.2	21.10
465.4	21.33
465.6	21.81
465.8	22.64
466.0	23.47
466.2	23.81
466.4	24.24
466.6	24.94
466.8	25.67
467.0	26.88
467.2	28.02
467.4	28.66
467.6	29.33
467.8	30.07
468.0	30.61
468.2	32.09
468.4	33.22
468.6	34.17
468.8	34.98
469.0	35.41
469.2	36.01
469.4	37.04
469.6	38.16
469.8	39.23
470.0	40.37
470.2	41.06
470.4	42.06
470.6	43.11
470.8	44.99
471.0	46.81
471.2	48.40
471.4	49.68
471.6	50.89
471.8	51.75
472.0	53.70
472.2	55.11
472.4	56.35
472.6	58.17
472.8	60.08
473.0	61.84
473.2	64.59
473.4	65.88
473.6	66.77
473.8	68.47
474.0	70.36
474.2	72.28
474.4	74.66
474.6	76.34
474.8	78.22
475.0	80.51
475.2	82.54
475.4	84.91
475.6	86.56
475.8	88.77
476.0	91.14
476.2	94.06
476.4	96.59
476.6	99.41
476.8	100.9
477.0	103.2
477.2	105.4
477.4	108.6
477.6	111.8
477.8	115.2
478.0	118.1
478.2	120.9
478.4	123.6
478.6	126.5
478.8	129.9
479.0	132.9
479.2	135.7
479.4	139.3
479.6	142.7
479.8	146.4
480.0	150.3
480.2	153.4
480.4	157.7
480.6	162.5
480.8	166.2
481.0	169.2
481.2	172.8
481.4	175.8
481.6	179.9
481.8	185.0
482.0	189.0
482.2	192.9
482.4	197.6
482.6	201.8
482.8	206.1
483.0	211.6
483.2	216.5
483.4	221.8
483.6	226.6
483.8	232.0
484.0	236.8
484.2	241.8
484.4	247.0
484.6	252.0
484.8	257.3
485.0	264.1
485.2	270.2
485.4	277.5
485.6	284.6
485.8	290.4
486.0	295.5
486.2	300.5
486.4	306.2
486.6	314.4
486.8	322.9
487.0	330.3
487.2	336.1
487.4	342.2
487.6	350.5
487.8	360.0
488.0	367.9
488.2	375.5
488.4	382.7
488.6	391.7
488.8	402.6
489.0	412.9
489.2	421.1
489.4	429.2
489.6	438.2
489.8	447.7
490.0	459.2
490.2	470.5
490.4	482.0
490.6	491.7
490.8	502.2
491.0	514.5
491.2	525.5
491.4	536.5
491.6	548.1
491.8	559.4
492.0	570.5
492.2	584.6
492.4	595.3
492.6	608.2
492.8	622.3
493.0	636.9
493.2	651.8
493.4	667.3
493.6	681.8
493.8	694.7
494.0	708.1
494.2	723.3
494.4	739.8
494.6	758.6
494.8	775.4
495.0	791.0
495.2	809.1
495.4	827.1
495.6	843.6
495.8	862.1
496.0	877.2
496.2	894.4
496.4	917.0
496.6	937.1
496.8	956.1
497.0	977.5
497.2	995.6
497.4	1016
497.6	1040
497.8	1061
498.0	1082
498.2	1103
498.4	1125
498.6	1147
498.8	1166
499.0	1188
499.2	1211
499.4	1237
499.6	1267
499.8	1296
500.0	1318
500.2	1342
500.4	1364
500.6	1392
500.8	1422
501.0	1455
501.2	1482
501.4	1509
501.6	1538
501.8	1568
502.0	1599
502.2	1627
502.4	1658
502.6	1687
502.8	1715
503.0	1745
503.2	1775
503.4	1801
503.6	1834
503.8	1865
504.0	1896
504.2	1932
504.4	1969
504.6	2003
504.8	2037
505.0	2071
505.2	2104
505.4	2139
505.6	2172
505.8	2206
506.0	2242
506.2	2278
506.4	2311
506.6	2347
506.8	2387
507.0	2426
507.2	2464
507.4	2498
507.6	2528
507.8	2561
508.0	2601
508.2	2639
508.4	2677
508.6	2713
508.8	2752
509.0	2789
509.2	2834
509.4	2873
509.6	2912
509.8	2949
510.0	2988
510.2	3027
510.4	3066
510.6	3099
510.8	3134
511.0	3174
511.2	3213
511.4	3257
511.6	3295
511.8	3334
512.0	3370
512.2	3410
512.4	3452
512.6	3495
512.8	3537
513.0	3576
513.2	3611
513.4	3653
513.6	3693
513.8	3731
514.0	3775
514.2	3816
514.4	3858
514.6	3902
514.8	3940
515.0	3978
515.2	4024
515.4	4068
515.6	4110
515.8	4152
516.0	4193
516.2	4225
516.4	4257
516.6	4292
516.8	4330
517.0	4373
517.2	4417
517.4	4453
517.6	4487
517.8	4527
518.0	4566
518.2	4607
518.4	4645
518.6	4685
518.8	4727
519.0	4770
519.2	4809
519.4	4850
519.6	4875
519.8	4909
520.0	4947
520.2	4985
520.4	5025
520.6	5062
520.8	5099
521.0	5138
521.2	5177
521.4	5211
521.6	5240
521.8	5271
522.0	5309
522.2	5346
522.4	5384
522.6	5418
522.8	5445
523.0	5478
523.2	5505
523.4	5539
523.6	5573
523.8	5610
524.0	5647
524.2	5689
524.4	5718
524.6	5746
524.8	5771
525.0	5802
525.2	5833
525.4	5870
525.6	5899
525.8	5919
526.0	5944
526.2	5971
526.4	5999
526.6	6028
526.8	6056
527.0	6079
527.2	6104
527.4	6132
527.6	6169
527.8	6199
528.0	6231
528.2	6256
528.4	6275
528.6	6293
528.8	6315
529.0	6336
529.2	6360
529.4	6383
529.6	6402
529.8	6424
530.0	6440
530.2	6469
530.4	6496
530.6	6524
530.8	6545
531.0	6567
531.2	6582
531.4	6606
531.6	6629
531.8	6646
532.0	6663
532.2	6677
532.4	6687
532.6	6691
532.8	6700
533.0	6715
533.2	6732
533.4	6759
533.6	6780
533.8	6796
534.0	6810
534.2	6824
534.4	6837
534.6	6856
534.8	6867
535.0	6885
535.2	6899
535.4	6910
535.6	6921
535.8	6923
536.0	6935
536.2	6944
536.4	6953
536.6	6961
536.8	6962
537.0	6963
537.2	6974
537.4	6981
537.6	6986
537.8	6998
538.0	7012
538.2	7021
538.4	7027
538.6	7032
538.8	7031
539.0	7033
539.2	7041
539.4	7049
539.6	7060
539.8	7070
540.0	7075
540.2	7077
540.4	7077
540.6	7073
540.8	7062
541.0	7066
541.2	7068
541.4	7075
541.6	7075
541.8	7064
542.0	7059
542.2	7064
542.4	7069
542.6	7078
542.8	7076
543.0	7067
543.2	7065
543.4	7058
543.6	7055
543.8	7054
544.0	7055
544.2	7049
544.4	7047
544.6	7041
544.8	7032
545.0	7024
545.2	7027
545.4	7025
545.6	7023
545.8	7013
546.0	6999
546.2	6989
546.4	6988
546.6	6980
546.8	6963
547.0	6958
547.2	6952
547.4	6952
547.6	6952
547.8	6941
548.0	6930
548.2	6931
548.4	6919
548.6	6907
548.8	6893
549.0	6880
549.2	6874
549.4	6871
549.6	6866
549.8	6851
550.0	6840
550.2	6822
550.4	6809
550.6	6803
550.8	6799
551.0	6786
551.2	6771
551.4	6757
551.6	6740
551.8	6730
552.0	6723
552.2	6704
552.4	6686
552.6	6677
552.8	6657
553.0	6649
553.2	6639
553.4	6622
553.6	6610
553.8	6597
554.0	6578
554.2	6563
554.4	6549
554.6	6546
554.8	6544
555.0	6529
555.2	6508
555.4	6490
555.6	6468
555.8	6450
556.0	6435
556.2	6419
556.4	6406
556.6	6405
556.8	6384
557.0	6369
557.2	6354
557.4	6334
557.6	6310
557.8	6295
558.0	6274
558.2	6270
558.4	6270
558.6	6254
558.8	6231
559.0	6211
559.2	6189
559.4	6167
559.6	6152
559.8	6133
560.0	6118
560.2	6106
560.4	6089
560.6	6066
560.8	6043
561.0	6027
561.2	6014
561.4	5998
561.6	5980
561.8	5956
562.0	5930
562.2	5913
562.4	5900
562.6	5885
562.8	5864
563.0	5842
563.2	5828
563.4	5812
563.6	5797
563.8	5777
564.0	5749
564.2	5725
564.4	5711
564.6	5698
564.8	5686
565.0	5673
565.2	5656
565.4	5631
565.6	5605
565.8	5582
566.0	5568
566.2	5551
566.4	5532
566.6	5511
566.8	5488
567.0	5473
567.2	5459
567.4	5437
567.6	5417
567.8	5394
568.0	5373
568.2	5358
568.4	5337
568.6	5316
568.8	5296
569.0	5279
569.2	5262
569.4	5242
569.6	5224
569.8	5203
570.0	5181
570.2	5167
570.4	5150
570.6	5124
570.8	5097
571.0	5068
571.2	5045
571.4	5028
571.6	5018
571.8	4998
572.0	4981
572.2	4967
572.4	4948
572.6	4930
572.8	4909
573.0	4881
573.2	4863
573.4	4849
573.6	4832
573.8	4819
574.0	4799
574.2	4780
574.4	4753
574.6	4732
574.8	4711
575.0	4692
575.2	4676
575.4	4664
575.6	4642
575.8	4626
576.0	4601
576.2	4574
576.4	4549
576.6	4531
576.8	4509
577.0	4494
577.2	4482
577.4	4469
577.6	4456
577.8	4441
578.0	4418
578.2	4394
578.4	4372
578.6	4356
578.8	4335
579.0	4321
579.2	4307
579.4	4288
579.6	4267
579.8	4251
580.0	4225
580.2	4205
580.4	4188
580.6	4173
580.8	4154
581.0	4135
581.2	4113
581.4	4088
581.6	4074
581.8	4056
582.0	4037
582.2	4023
582.4	4007
582.6	3987
582.8	3976
583.0	3958
583.2	3943
583.4	3927
583.6	3910
583.8	3888
584.0	3869
584.2	3850
584.4	3835
584.6	3812
584.8	3795
585.0	3770
585.2	3754
585.4	3740
585.6	3731
585.8	3718
586.0	3710
586.2	3692
586.4	3671
586.6	3646
586.8	3625
587.0	3602
587.2	3588
587.4	3570
587.6	3555
587.8	3543
588.0	3529
588.2	3513
588.4	3501
588.6	3486
588.8	3470
589.0	3447
589.2	3426
589.4	3408
589.6	3396
589.8	3382
590.0	3368
590.2	3346
590.4	3328
590.6	3312
590.8	3297
591.0	3281
591.2	3267
591.4	3247
591.6	3233
591.8	3215
592.0	3198
592.2	3184
592.4	3173
592.6	3157
592.8	3144
593.0	3129
593.2	3116
593.4	3102
593.6	3088
593.8	3070
594.0	3050
594.2	3034
594.4	3021
594.6	3008
594.8	2995
595.0	2982
595.2	2967
595.4	2951
595.6	2935
595.8	2921
596.0	2908
596.2	2891
596.4	2878
596.6	2867
596.8	2854
597.0	2840
597.2	2830
597.4	2814
597.6	2799
597.8	2780
598.0	2762
598.2	2746
598.4	2736
598.6	2728
598.8	2718
599.0	2701
599.2	2684
599.4	2665
599.6	2651
599.8	2641
600.0	2628
600.2	2617
600.4	2603
600.6	2590
600.8	2577
601.0	2562
601.2	2543
601.4	2531
601.6	2516
601.8	2509
602.0	2499
602.2	2486
602.4	2473
602.6	2462
602.8	2449
603.0	2437
603.2	2421
603.4	2408
603.6	2396
603.8	2383
604.0	2367
604.2	2351
604.4	2332
604.6	2321
604.8	2313
605.0	2303
605.2	2288
605.4	2280
605.6	2267
605.8	2255
606.0	2243
606.2	2229
606.4	2210
606.6	2201
606.8	2189
607.0	2177
607.2	2167
607.4	2156
607.6	2142
607.8	2131
608.0	2119
608.2	2106
608.4	2095
608.6	2081
608.8	2067
609.0	2056
609.2	2046
609.4	2037
609.6	2028
609.8	2018
610.0	2004
610.2	1992
610.4	1979
610.6	1970
610.8	1961
611.0	1952
611.2	1937
611.4	1927
611.6	1913
611.8	1899
612.0	1886
612.2	1877
612.4	1865
612.6	1853
612.8	1840
613.0	1827
613.2	1819
613.4	1814
613.6	1806
613.8	1796
614.0	1784
614.2	1770
614.4	1756
614.6	1743
614.8	1734
615.0	1727
615.2	1719
615.4	1707
615.6	1696
615.8	1684
616.0	1675
616.2	1664
616.4	1656
616.6	1644
616.8	1634
617.0	1624
617.2	1618
617.4	1608
617.6	1597
617.8	1585
618.0	1577
618.2	1565
618.4	1558
618.6	1548
618.8	1539
619.0	1531
619.2	1524
619.4	1512
619.6	1500
619.8	1490
620.0	1482
620.2	1472
620.4	1461
620.6	1454
620.8	1443
621.0	1435
621.2	1427
621.4	1418
621.6	1410
621.8	1401
622.0	1390
622.2	1378
622.4	1371
622.6	1364
622.8	1357
623.0	1348
623.2	1340
623.4	1332
623.6	1323
623.8	1314
624.0	1306
624.2	1298
624.4	1292
624.6	1283
624.8	1275
625.0	1264
625.2	1255
625.4	1248
625.6	1239
625.8	1230
626.0	1224
626.2	1214
626.4	1206
626.6	1199
626.8	1189
627.0	1182
627.2	1176
627.4	1169
627.6	1166
627.8	1157
628.0	1148
628.2	1139
628.4	1129
628.6	1121
628.8	1116
629.0	1110
629.2	1103
629.4	1094
629.6	1084
629.8	1075
630.0	1069
630.2	1064
630.4	1059
630.6	1052
630.8	1043
631.0	1036
631.2	1028
631.4	1023
631.6	1018
631.8	1009
632.0	1004
632.2	996.6
632.4	989.7
632.6	983.1
632.8	976.2
633.0	966.8
633.2	963.6
633.4	957.8
633.6	954.0
633.8	948.0
634.0	940.8
634.2	931.3
634.4	921.7
634.6	915.6
634.8	911.9
635.0	909.6
635.2	907.5
635.4	901.8
635.6	892.5
635.8	886.6
636.0	881.3
636.2	875.9
636.4	871.0
636.6	863.4
636.8	854.8
637.0	850.1
637.2	846.1
637.4	839.9
637.6	834.9
637.8	828.0
638.0	822.0
638.2	816.9
638.4	810.8
638.6	802.6
638.8	798.5
639.0	792.3
639.2	790.4
639.4	785.5
639.6	781.3
639.8	773.9
640.0	768.4
640.2	761.6
640.4	756.9
640.6	749.2
640.8	743.6
641.0	737.7
641.2	735.3
641.4	732.4
641.6	729.1
641.8	723.2
642.0	718.1
642.2	711.3
642.4	707.9
642.6	704.8
642.8	699.4
643.0	694.2
643.2	689.5
643.4	683.4
643.6	679.5
643.8	676.9
644.0	671.5
644.2	666.1
644.4	660.7
644.6	656.4
644.8	653.0
645.0	649.3
645.2	644.8
645.4	639.2
645.6	633.5
645.8	628.0
646.0	624.1
646.2	620.0
646.4	616.6
646.6	613.0
646.8	609.4
647.0	604.7
647.2	600.3
647.4	595.3
647.6	591.9
647.8	587.3
648.0	583.9
648.2	581.1
648.4	577.4
648.6	572.4
648.8	567.2
649.0	561.6
649.2	558.3
649.4	555.3
649.6	552.9
649.8	549.8
650.0	544.5
650.2	540.4
650.4	537.2
650.6	533.5
650.8	529.0
651.0	524.9
651.2	521.3
651.4	519.2
651.6	516.1
651.8	512.7
652.0	508.0
652.2	504.2
652.4	502.4
652.6	500.3
652.8	498.1
653.0	493.0
653.2	487.7
653.4	482.3
653.6	478.8
653.8	476.2
654.0	475.6
654.2	472.5
654.4	468.2
654.6	462.3
654.8	459.2
655.0	456.5
655.2	454.1
655.4	451.0
655.6	447.7
655.8	444.0
656.0	441.0
656.2	438.5
656.4	435.7
656.6	432.3
656.8	429.6
657.0	425.9
657.2	421.8
657.4	418.5
657.6	416.0
657.8	413.2
658.0	410.4
658.2	407.1
658.4	403.9
658.6	399.3
658.8	396.9
659.0	394.0
659.2	392.3
659.4	392.1
659.6	389.8
659.8	386.4
660.0	382.1
660.2	377.5
660.4	374.2
660.6	372.5
660.8	369.6
661.0	367.7
661.2	364.1
661.4	360.9
661.6	359.4
661.8	357.5
662.0	355.5
662.2	353.0
662.4	350.0
662.6	347.7
662.8	345.7
663.0	343.1
663.2	341.9
663.4	339.0
663.6	336.5
663.8	333.7
664.0	330.3
664.2	326.8
664.4	324.8
664.6	322.5
664.8	319.4
665.0	317.1
665.2	314.7
665.4	312.3
665.6	311.1
665.8	309.7
666.0	307.4
666.2	305.1
666.4	301.9
666.6	298.7
666.8	296.7
667.0	293.2
667.2	291.1
667.4	290.1
667.6	289.2
667.8	286.9
668.0	285.6
668.2	282.7
668.4	280.8
668.6	279.6
668.8	277.3
669.0	274.7
669.2	273.5
669.4	272.4
669.6	270.4
669.8	268.5
670.0	265.9
670.2	263.4
670.4	261.5
670.6	259.6
670.8	257.8
671.0	256.3
671.2	254.8
671.4	252.6
671.6	249.7
671.8	247.4
672.0	246.5
672.2	244.1
672.4	243.2
672.6	241.4
672.8	239.4
673.0	237.2
673.2	235.4
673.4	232.9
673.6	231.8
673.8	230.3
674.0	228.4
674.2	226.2
674.4	224.2
674.6	222.8
674.8	221.5
675.0	219.8
675.2	217.8
675.4	216.4
675.6	214.6
675.8	213.3
676.0	211.7
676.2	210.4
676.4	209.8
676.6	207.5
676.8	205.2
677.0	203.2
677.2	201.3
677.4	199.7
677.6	199.5
677.8	197.9
678.0	197.0
678.2	195.6
678.4	194.5
678.6	192.3
678.8	190.8
679.0	188.7
679.2	186.9
679.4	185.7
679.6	184.4
679.8	182.6
680.0	180.5
680.2	179.4
680.4	179.0
680.6	178.0
680.8	176.5
681.0	175.2
681.2	173.0
681.4	172.8
681.6	172.5
681.8	171.3
682.0	169.8
682.2	168.2
682.4	165.9
682.6	164.4
682.8	163.4
683.0	162.9
683.2	161.0
683.4	159.7
683.6	159.1
683.8	158.3
684.0	157.5
684.2	156.3
684.4	153.9
684.6	152.8
684.8	151.9
685.0	151.0
685.2	149.9
685.4	148.8
685.6	147.4
685.8	146.3
686.0	145.5
686.2	143.9
686.4	143.1
686.6	142.4
686.8	141.5
687.0	140.4
687.2	139.8
687.4	138.6
687.6	137.9
687.8	136.8
688.0	135.4
688.2	133.7
688.4	132.3
688.6	131.2
688.8	130.0
689.0	129.5
689.2	128.6
689.4	127.8
689.6	127.0
689.8	125.9
690.0	125.2
690.2	124.4
690.4	123.3
690.6	122.3
690.8	122.1
691.0	121.3
691.2	120.6
691.4	119.6
691.6	119.1
691.8	118.5
692.0	118.5
692.2	117.2
692.4	115.8
692.6	114.1
692.8	113.1
693.0	112.4
693.2	112.3
693.4	111.9
693.6	111.4
693.8	109.7
694.0	108.6
694.2	107.9
694.4	107.3
694.6	106.5
694.8	106.2
695.0	105.5
695.2	105.2
695.4	104.8
695.6	103.3
695.8	101.2
696.0	99.87
696.2	99.19
696.4	99.38
696.6	99.78
696.8	99.62
697.0	99.14
697.2	98.13
697.4	96.91
697.6	95.97
697.8	95.21
698.0	95.22
698.2	94.98
698.4	94.19
698.6	93.30
698.8	91.81
699.0	90.90
699.2	91.08
699.4	90.80
699.6	90.58
699.8	89.93
700.0	89.26
700.2	88.39
700.4	87.73
700.6	87.00
700.8	86.79
701.0	85.84
701.2	86.00
701.4	84.90
701.6	83.84
701.8	83.07
702.0	82.58
702.2	82.22
702.4	82.02
702.6	81.01
702.8	80.45
703.0	79.95
703.2	79.80
703.4	80.12
703.6	79.99
703.8	79.52
704.0	78.95
704.2	78.00
704.4	77.22
704.6	76.37
704.8	75.62
705.0	74.92
705.2	74.62
705.4	73.92
705.6	73.93
705.8	73.33
706.0	72.75
706.2	72.36
706.4	72.49
706.6	72.24
706.8	72.50
707.0	72.00
707.2	70.50
707.4	68.84
707.6	68.03
707.8	67.36
708.0	67.41
708.2	67.70
708.4	67.68
708.6	67.48
708.8	67.20
709.0	66.60
709.2	66.55
709.4	65.54
709.6	65.20
709.8	64.78
710.0	64.29
710.2	64.43
710.4	64.20
710.6	62.77
710.8	62.11
711.0	61.17
711.2	60.99
711.4	61.01
711.6	60.21
711.8	59.44
712.0	58.98
712.2	58.26
712.4	58.52
712.6	58.36
712.8	58.14
713.0	58.44
713.2	58.29
713.4	57.17
713.6	56.64
713.8	55.56
714.0	55.04
714.2	55.18
714.4	55.09
714.6	54.89
714.8	54.73
715.0	53.85
715.2	53.28
715.4	52.93
715.6	52.28
715.8	51.97
716.0	51.58
716.2	50.93
716.4	50.57
716.6	50.86
716.8	50.79
717.0	50.28
717.2	50.11
717.4	49.28
717.6	48.98
717.8	48.97
718.0	48.84
718.2	48.69
718.4	48.30
718.6	47.31
718.8	46.72
719.0	45.74
719.2	45.46
719.4	45.65
719.6	45.43
719.8	45.82
720.0	45.59
720.2	44.74
720.4	44.71
720.6	44.41
720.8	43.52
721.0	43.22
721.2	42.88
721.4	42.16
721.6	42.39
721.8	42.46
722.0	41.46
722.2	40.87
722.4	40.38
722.6	39.75
722.8	39.74
723.0	39.58
723.2	39.16
723.4	39.25
723.6	38.74
723.8	38.10
724.0	38.18
724.2	37.99
724.4	37.56
724.6	37.63
724.8	37.29
725.0	36.74
725.2	36.86
725.4	36.66
725.6	35.91
725.8	35.83
726.0	35.64
726.2	35.35
726.4	35.13
726.6	34.98
726.8	34.51
727.0	34.68
727.2	34.51
727.4	33.69
727.6	33.38
727.8	32.78
728.0	32.34
728.2	32.52
728.4	32.52
728.6	32.40
728.8	32.43
729.0	31.84
729.2	31.32
729.4	30.90
729.6	30.69
729.8	30.69
730.0	30.79
730.2	30.77
730.4	30.55
730.6	30.20
730.8	29.79
731.0	29.31
731.2	29.19
731.4	28.87
731.6	28.48
731.8	28.21
732.0	28.00
732.2	27.55
732.4	27.56
732.6	27.24
732.8	26.71
733.0	26.38
733.2	26.27
733.4	25.72
733.6	25.78
733.8	26.02
734.0	25.99
734.2	25.98
734.4	26.22
734.6	25.73
734.8	25.72
735.0	25.61
735.2	25.24
735.4	24.86
735.6	24.46
735.8	23.70
736.0	24.03
736.2	23.91
736.4	23.91
736.6	23.92
736.8	23.55
737.0	23.01
737.2	22.92
737.4	22.51
737.6	22.38
737.8	22.44
738.0	22.43
738.2	22.36
738.4	22.29
738.6	22.01
738.8	21.97
739.0	21.98
739.2	21.66
739.4	21.35
739.6	20.90
739.8	20.33
740.0	20.12
740.2	20.33
740.4	20.19
740.6	20.49
740.8	20.37
741.0	20.32
741.2	20.08
741.4	19.88
741.6	19.48
741.8	19.39
742.0	18.93
742.2	19.05
742.4	18.77
742.6	18.88
742.8	18.87
743.0	18.93
743.2	18.57
743.4	18.39
743.6	17.90
743.8	17.89
744.0	17.88
744.2	17.96
744.4	17.99
744.6	17.94
744.8	17.88
745.0	17.69
745.2	17.73
745.4	17.25
745.6	16.91
745.8	16.43
746.0	16.21
746.2	16.11
746.4	16.72
746.6	16.68
746.8	16.81
747.0	16.41
747.2	16.16
747.4	15.88
747.6	15.98
747.8	15.59
748.0	15.56
748.2	15.20
748.4	15.20
748.6	15.07
748.8	15.15
749.0	14.86
749.2	14.61
749.4	14.25
749.6	14.18
749.8	14.30
750.0	14.42
750.2	14.34
750.4	14.29
750.6	14.12
750.8	14.01
751.0	14.00
751.2	13.95
751.4	13.90
751.6	13.76
751.8	13.44
752.0	13.31
752.2	13.48
752.4	13.56
752.6	13.27
752.8	13.15
753.0	12.98
753.2	12.97
753.4	13.01
753.6	12.82
753.8	12.50
754.0	12.38
754.2	12.49
754.4	12.40
754.6	12.16
754.8	12.12
755.0	12.32
755.2	12.23
755.4	12.37
755.6	12.12
755.8	11.92
756.0	11.72
756.2	11.72
756.4	11.64
756.6	11.70
756.8	11.58
757.0	11.52
757.2	11.38
757.4	11.30
757.6	11.16
757.8	11.02
758.0	11.01
758.2	11.04
758.4	11.13
758.6	10.96
758.8	11.03
759.0	10.94
759.2	11.01
759.4	11.01
759.6	10.85
759.8	10.43
760.0	10.30
760.2	10.10
760.4	10.09
760.6	10.04
760.8	10.06
761.0	10.12
761.2	10.00
761.4	9.788
761.6	9.692
761.8	9.519
762.0	9.551
762.2	9.390
762.4	9.442
762.6	9.401
762.8	9.463
763.0	9.635
763.2	9.766
763.4	9.498
763.6	9.292
763.8	9.094
764.0	8.937
764.2	8.942
764.4	9.033
764.6	8.950
764.8	8.856
765.0	8.838
765.2	8.845
765.4	8.650
765.6	8.542
765.8	8.418
766.0	8.416
766.2	8.177
766.4	8.222
766.6	8.191
766.8	8.260
767.0	8.351
767.2	8.366
767.4	8.102
767.6	8.048
767.8	7.930
768.0	7.919
768.2	7.841
768.4	7.761
768.6	7.766
768.8	7.905
769.0	7.945
769.2	8.002
769.4	7.812
769.6	7.645
769.8	7.643
770.0	7.468
770.2	7.314
770.4	7.314
770.6	7.131
770.8	7.136
771.0	7.097
771.2	7.006
771.4	6.896
771.6	6.819
771.8	6.830
772.0	6.893
772.2	6.778
772.4	6.823
772.6	6.772
772.8	6.866
773.0	7.059
773.2	6.879
773.4	6.781
773.6	6.624
773.8	6.511
774.0	6.690
774.2	6.699
774.4	6.562
774.6	6.661
774.8	6.435
775.0	6.185
775.2	6.136
775.4	5.977
775.6	5.983
775.8	6.055
776.0	5.920
776.2	5.916
776.4	5.991
776.6	6.009
776.8	6.115
777.0	6.249
777.2	6.240
777.4	6.164
777.6	5.930
777.8	5.894
778.0	5.960
778.2	6.160
778.4	6.063
778.6	5.882
778.8	5.718
779.0	5.835
779.2	5.785
779.4	5.646
779.6	5.323
779.8	5.300
780.0	5.447
780.2	5.634
780.4	5.714
780.6	5.585
780.8	5.491
781.0	5.454
781.2	5.376
781.4	5.349
781.6	5.343
781.8	5.202
782.0	5.026
782.2	4.856
782.4	4.999
782.6	5.317
782.8	5.409
783.0	5.283
783.2	5.040
783.4	4.811
783.6	4.722
783.8	4.779
784.0	4.799
784.2	4.868
784.4	5.056
784.6	5.117
784.8	4.986
785.0	5.058
785.2	4.929
785.4	4.956
785.6	5.034
785.8	4.971
786.0	4.824
786.2	4.915
786.4	4.786
786.6	4.833
786.8	4.860
787.0	4.836
787.2	4.833
787.4	4.869
787.6	4.900
787.8	4.864
788.0	4.891
788.2	4.916
788.4	4.814
788.6	4.743
788.8	4.756
789.0	4.851
789.2	4.994
789.4	5.040
789.6	4.862
789.8	4.612
790.0	4.422
790.2	4.506
790.4	4.651
790.6	4.683
790.8	4.650
791.0	4.366
791.2	4.342
791.4	4.434
791.6	4.624
791.8	4.657
792.0	4.626
792.2	4.551
792.4	4.538
792.6	4.605
792.8	4.668
793.0	4.669
793.2	4.542
793.4	4.507
793.6	4.448
793.8	4.455
794.0	4.432
794.2	4.405
794.4	4.404
794.6	4.347
794.8	4.581
795.0	4.634
795.2	4.682
795.4	4.619
795.6	4.626
795.8	4.484
796.0	4.581
796.2	4.499
796.4	4.427
796.6	4.220
796.8	4.172
797.0	4.245
797.2	4.345
797.4	4.468
797.6	4.598
797.8	4.600
798.0	4.593
798.2	4.526
798.4	4.407
798.6	4.288
798.8	4.357
799.0	4.159
799.2	4.162
799.4	4.063
799.6	4.106
799.8	4.207
800.0	4.348

