Sample:	'20211010A(EM)
File name:	300uM.FDS
Run date:	'10:57:17, 03/23/2023
Operator:	Administrator
Comment:	'

Instrument
Model:	F-4700 FL Spectrophotometer
Serial number:	2019-001
ROM Version:	5J24010 00

Instrument parameters
Measurement type:	Wavelength scan
Scan mode:	Emission
Data mode:	Fluorescence
EX WL:	520.0 nm
EM  Start WL:	540.0 nm
EM  End WL:	900.0 nm
Scan speed:	1200 nm/min
Delay:	0.0 s
EX Slit:	10.0 nm
EM Slit:	10.0 nm
PMT Voltage:	570 V
Response:	0.002 s
Corrected spectra:	Off
Shutter control:	On

Processing performed
Savitsky-Golay smoothed
Smoothing order:	3
Number of points:	7
Number of times:	1

Peak integration
Integration method:	Rectangular
Sensitivity:	1
Threshold:	1.000

Peaks
No.	Start(nm)	Apex(nm)	End(nm)	Height(Data)	Valley(nm)	Valley(Data)
1	540.0	628.8	629.4	9081	629.4	9070
2	629.4	631.8	795.2	9109	795.2	65.04
3	795.2	795.8	814.4	67.64	814.4	39.78
4	814.4	815.0	819.4	41.54	819.4	35.57
5	819.4	820.0	827.6	36.88	827.6	25.37
6	827.6	828.6	834.4	26.72	834.4	18.16
7	834.4	835.2	900.0	20.07	900.0	3.785

Data points
nm	Data
540.0	2326
540.2	2331
540.4	2339
540.6	2349
540.8	2355
541.0	2364
541.2	2368
541.4	2375
541.6	2381
541.8	2389
542.0	2394
542.2	2400
542.4	2408
542.6	2416
542.8	2430
543.0	2438
543.2	2442
543.4	2448
543.6	2452
543.8	2459
544.0	2476
544.2	2487
544.4	2492
544.6	2496
544.8	2500
545.0	2512
545.2	2524
545.4	2538
545.6	2546
545.8	2548
546.0	2556
546.2	2564
546.4	2569
546.6	2578
546.8	2587
547.0	2596
547.2	2612
547.4	2623
547.6	2627
547.8	2627
548.0	2628
548.2	2638
548.4	2656
548.6	2669
548.8	2679
549.0	2691
549.2	2696
549.4	2709
549.6	2718
549.8	2726
550.0	2729
550.2	2743
550.4	2755
550.6	2770
550.8	2778
551.0	2792
551.2	2798
551.4	2810
551.6	2818
551.8	2825
552.0	2832
552.2	2845
552.4	2851
552.6	2861
552.8	2872
553.0	2890
553.2	2910
553.4	2930
553.6	2939
553.8	2950
554.0	2960
554.2	2968
554.4	2976
554.6	2987
554.8	2994
555.0	3012
555.2	3028
555.4	3040
555.6	3048
555.8	3063
556.0	3076
556.2	3099
556.4	3116
556.6	3132
556.8	3140
557.0	3155
557.2	3173
557.4	3190
557.6	3210
557.8	3229
558.0	3241
558.2	3255
558.4	3270
558.6	3278
558.8	3292
559.0	3317
559.2	3336
559.4	3355
559.6	3365
559.8	3380
560.0	3395
560.2	3426
560.4	3447
560.6	3463
560.8	3483
561.0	3502
561.2	3520
561.4	3543
561.6	3560
561.8	3576
562.0	3603
562.2	3630
562.4	3653
562.6	3676
562.8	3686
563.0	3700
563.2	3718
563.4	3744
563.6	3771
563.8	3798
564.0	3823
564.2	3852
564.4	3872
564.6	3891
564.8	3917
565.0	3942
565.2	3966
565.4	3990
565.6	4009
565.8	4030
566.0	4063
566.2	4096
566.4	4118
566.6	4135
566.8	4157
567.0	4175
567.2	4198
567.4	4226
567.6	4257
567.8	4293
568.0	4324
568.2	4346
568.4	4363
568.6	4385
568.8	4414
569.0	4450
569.2	4469
569.4	4487
569.6	4506
569.8	4526
570.0	4554
570.2	4591
570.4	4622
570.6	4663
570.8	4694
571.0	4719
571.2	4747
571.4	4782
571.6	4805
571.8	4839
572.0	4857
572.2	4878
572.4	4894
572.6	4924
572.8	4963
573.0	4999
573.2	5031
573.4	5061
573.6	5074
573.8	5100
574.0	5128
574.2	5151
574.4	5185
574.6	5224
574.8	5254
575.0	5281
575.2	5293
575.4	5314
575.6	5342
575.8	5384
576.0	5417
576.2	5453
576.4	5476
576.6	5495
576.8	5520
577.0	5550
577.2	5576
577.4	5611
577.6	5633
577.8	5660
578.0	5685
578.2	5707
578.4	5738
578.6	5765
578.8	5788
579.0	5814
579.2	5832
579.4	5857
579.6	5890
579.8	5926
580.0	5961
580.2	5990
580.4	6018
580.6	6040
580.8	6061
581.0	6088
581.2	6114
581.4	6139
581.6	6167
581.8	6195
582.0	6214
582.2	6238
582.4	6268
582.6	6284
582.8	6312
583.0	6333
583.2	6361
583.4	6383
583.6	6409
583.8	6426
584.0	6453
584.2	6474
584.4	6508
584.6	6514
584.8	6532
585.0	6562
585.2	6594
585.4	6630
585.6	6651
585.8	6663
586.0	6669
586.2	6679
586.4	6695
586.6	6717
586.8	6735
587.0	6768
587.2	6790
587.4	6814
587.6	6837
587.8	6853
588.0	6868
588.2	6883
588.4	6902
588.6	6915
588.8	6937
589.0	6958
589.2	6974
589.4	6993
589.6	7014
589.8	7036
590.0	7063
590.2	7085
590.4	7096
590.6	7113
590.8	7126
591.0	7146
591.2	7156
591.4	7173
591.6	7186
591.8	7206
592.0	7229
592.2	7249
592.4	7262
592.6	7275
592.8	7280
593.0	7292
593.2	7307
593.4	7321
593.6	7344
593.8	7371
594.0	7384
594.2	7394
594.4	7399
594.6	7404
594.8	7426
595.0	7441
595.2	7446
595.4	7465
595.6	7480
595.8	7509
596.0	7540
596.2	7547
596.4	7551
596.6	7563
596.8	7565
597.0	7573
597.2	7583
597.4	7586
597.6	7593
597.8	7607
598.0	7630
598.2	7648
598.4	7673
598.6	7689
598.8	7709
599.0	7722
599.2	7733
599.4	7739
599.6	7735
599.8	7739
600.0	7760
600.2	7781
600.4	7801
600.6	7817
600.8	7814
601.0	7814
601.2	7820
601.4	7839
601.6	7853
601.8	7860
602.0	7869
602.2	7875
602.4	7876
602.6	7898
602.8	7906
603.0	7912
603.2	7928
603.4	7946
603.6	7958
603.8	7982
604.0	7992
604.2	7998
604.4	8008
604.6	8018
604.8	8026
605.0	8041
605.2	8053
605.4	8058
605.6	8070
605.8	8077
606.0	8082
606.2	8085
606.4	8094
606.6	8099
606.8	8110
607.0	8126
607.2	8136
607.4	8142
607.6	8160
607.8	8170
608.0	8180
608.2	8195
608.4	8202
608.6	8213
608.8	8223
609.0	8234
609.2	8252
609.4	8260
609.6	8273
609.8	8290
610.0	8300
610.2	8307
610.4	8316
610.6	8310
610.8	8315
611.0	8340
611.2	8363
611.4	8390
611.6	8398
611.8	8400
612.0	8398
612.2	8397
612.4	8397
612.6	8423
612.8	8435
613.0	8462
613.2	8469
613.4	8483
613.6	8491
613.8	8500
614.0	8495
614.2	8489
614.4	8491
614.6	8506
614.8	8519
615.0	8537
615.2	8547
615.4	8551
615.6	8572
615.8	8586
616.0	8596
616.2	8617
616.4	8638
616.6	8648
616.8	8650
617.0	8652
617.2	8640
617.4	8654
617.6	8666
617.8	8674
618.0	8683
618.2	8701
618.4	8705
618.6	8728
618.8	8742
619.0	8744
619.2	8747
619.4	8749
619.6	8746
619.8	8750
620.0	8756
620.2	8766
620.4	8787
620.6	8798
620.8	8815
621.0	8826
621.2	8836
621.4	8847
621.6	8864
621.8	8871
622.0	8886
622.2	8899
622.4	8904
622.6	8903
622.8	8895
623.0	8889
623.2	8893
623.4	8909
623.6	8936
623.8	8954
624.0	8958
624.2	8958
624.4	8942
624.6	8945
624.8	8959
625.0	8967
625.2	8976
625.4	8990
625.6	8989
625.8	8999
626.0	9008
626.2	9008
626.4	9017
626.6	9033
626.8	9039
627.0	9057
627.2	9059
627.4	9052
627.6	9051
627.8	9049
628.0	9055
628.2	9074
628.4	9077
628.6	9080
628.8	9081
629.0	9079
629.2	9078
629.4	9070
629.6	9070
629.8	9073
630.0	9072
630.2	9079
630.4	9084
630.6	9086
630.8	9101
631.0	9097
631.2	9097
631.4	9095
631.6	9100
631.8	9109
632.0	9108
632.2	9105
632.4	9107
632.6	9098
632.8	9091
633.0	9077
633.2	9056
633.4	9062
633.6	9074
633.8	9084
634.0	9093
634.2	9077
634.4	9055
634.6	9040
634.8	9044
635.0	9055
635.2	9074
635.4	9074
635.6	9066
635.8	9055
636.0	9038
636.2	9027
636.4	9029
636.6	9041
636.8	9054
637.0	9053
637.2	9034
637.4	9011
637.6	8990
637.8	8978
638.0	8977
638.2	8972
638.4	8975
638.6	8968
638.8	8951
639.0	8933
639.2	8927
639.4	8918
639.6	8919
639.8	8907
640.0	8901
640.2	8891
640.4	8881
640.6	8854
640.8	8840
641.0	8820
641.2	8814
641.4	8815
641.6	8790
641.8	8752
642.0	8730
642.2	8716
642.4	8713
642.6	8718
642.8	8697
643.0	8679
643.2	8660
643.4	8648
643.6	8635
643.8	8618
644.0	8606
644.2	8588
644.4	8565
644.6	8552
644.8	8525
645.0	8511
645.2	8493
645.4	8465
645.6	8447
645.8	8429
646.0	8405
646.2	8403
646.4	8390
646.6	8358
646.8	8338
647.0	8309
647.2	8283
647.4	8275
647.6	8273
647.8	8252
648.0	8222
648.2	8180
648.4	8140
648.6	8114
648.8	8109
649.0	8116
649.2	8097
649.4	8071
649.6	8036
649.8	8008
650.0	7985
650.2	7970
650.4	7942
650.6	7916
650.8	7890
651.0	7870
651.2	7847
651.4	7809
651.6	7780
651.8	7744
652.0	7719
652.2	7697
652.4	7675
652.6	7638
652.8	7620
653.0	7601
653.2	7584
653.4	7567
653.6	7540
653.8	7510
654.0	7475
654.2	7440
654.4	7405
654.6	7374
654.8	7342
655.0	7319
655.2	7294
655.4	7267
655.6	7235
655.8	7206
656.0	7170
656.2	7136
656.4	7114
656.6	7092
656.8	7063
657.0	7043
657.2	7011
657.4	6976
657.6	6942
657.8	6908
658.0	6882
658.2	6861
658.4	6835
658.6	6802
658.8	6772
659.0	6739
659.2	6713
659.4	6686
659.6	6659
659.8	6625
660.0	6604
660.2	6570
660.4	6530
660.6	6487
660.8	6451
661.0	6423
661.2	6398
661.4	6369
661.6	6339
661.8	6308
662.0	6276
662.2	6246
662.4	6211
662.6	6183
662.8	6155
663.0	6134
663.2	6105
663.4	6070
663.6	6029
663.8	5989
664.0	5960
664.2	5936
664.4	5915
664.6	5884
664.8	5844
665.0	5810
665.2	5779
665.4	5750
665.6	5726
665.8	5688
666.0	5653
666.2	5629
666.4	5598
666.6	5572
666.8	5547
667.0	5519
667.2	5490
667.4	5457
667.6	5422
667.8	5379
668.0	5347
668.2	5311
668.4	5288
668.6	5257
668.8	5228
669.0	5196
669.2	5168
669.4	5141
669.6	5118
669.8	5086
670.0	5059
670.2	5034
670.4	5007
670.6	4982
670.8	4949
671.0	4911
671.2	4877
671.4	4852
671.6	4825
671.8	4794
672.0	4762
672.2	4732
672.4	4703
672.6	4678
672.8	4650
673.0	4620
673.2	4591
673.4	4561
673.6	4538
673.8	4515
674.0	4487
674.2	4458
674.4	4428
674.6	4390
674.8	4361
675.0	4339
675.2	4320
675.4	4299
675.6	4270
675.8	4237
676.0	4210
676.2	4177
676.4	4157
676.6	4134
676.8	4113
677.0	4092
677.2	4074
677.4	4048
677.6	4022
677.8	3986
678.0	3960
678.2	3927
678.4	3902
678.6	3880
678.8	3846
679.0	3818
679.2	3801
679.4	3779
679.6	3757
679.8	3731
680.0	3704
680.2	3684
680.4	3669
680.6	3646
680.8	3624
681.0	3603
681.2	3575
681.4	3549
681.6	3516
681.8	3481
682.0	3458
682.2	3436
682.4	3416
682.6	3400
682.8	3384
683.0	3365
683.2	3338
683.4	3311
683.6	3282
683.8	3257
684.0	3239
684.2	3215
684.4	3194
684.6	3176
684.8	3155
685.0	3140
685.2	3119
685.4	3100
685.6	3084
685.8	3064
686.0	3042
686.2	3025
686.4	3000
686.6	2978
686.8	2959
687.0	2944
687.2	2923
687.4	2905
687.6	2885
687.8	2861
688.0	2842
688.2	2829
688.4	2812
688.6	2789
688.8	2774
689.0	2755
689.2	2737
689.4	2729
689.6	2710
689.8	2685
690.0	2663
690.2	2647
690.4	2630
690.6	2621
690.8	2603
691.0	2591
691.2	2568
691.4	2549
691.6	2531
691.8	2515
692.0	2504
692.2	2492
692.4	2475
692.6	2455
692.8	2442
693.0	2430
693.2	2420
693.4	2408
693.6	2392
693.8	2374
694.0	2353
694.2	2335
694.4	2320
694.6	2311
694.8	2296
695.0	2289
695.2	2277
695.4	2265
695.6	2256
695.8	2245
696.0	2230
696.2	2214
696.4	2193
696.6	2176
696.8	2162
697.0	2147
697.2	2138
697.4	2129
697.6	2118
697.8	2108
698.0	2095
698.2	2081
698.4	2068
698.6	2055
698.8	2046
699.0	2035
699.2	2026
699.4	2016
699.6	2002
699.8	1985
700.0	1969
700.2	1961
700.4	1951
700.6	1941
700.8	1928
701.0	1916
701.2	1904
701.4	1895
701.6	1885
701.8	1872
702.0	1863
702.2	1854
702.4	1844
702.6	1834
702.8	1822
703.0	1813
703.2	1803
703.4	1794
703.6	1782
703.8	1776
704.0	1770
704.2	1764
704.4	1752
704.6	1740
704.8	1722
705.0	1707
705.2	1701
705.4	1694
705.6	1688
705.8	1679
706.0	1665
706.2	1647
706.4	1632
706.6	1627
706.8	1620
707.0	1616
707.2	1607
707.4	1595
707.6	1583
707.8	1576
708.0	1567
708.2	1554
708.4	1543
708.6	1532
708.8	1526
709.0	1520
709.2	1513
709.4	1504
709.6	1500
709.8	1486
710.0	1480
710.2	1468
710.4	1453
710.6	1442
710.8	1433
711.0	1422
711.2	1420
711.4	1413
711.6	1398
711.8	1389
712.0	1380
712.2	1374
712.4	1374
712.6	1366
712.8	1350
713.0	1337
713.2	1329
713.4	1323
713.6	1320
713.8	1308
714.0	1298
714.2	1286
714.4	1278
714.6	1272
714.8	1267
715.0	1259
715.2	1253
715.4	1240
715.6	1231
715.8	1220
716.0	1212
716.2	1203
716.4	1199
716.6	1194
716.8	1187
717.0	1177
717.2	1163
717.4	1151
717.6	1143
717.8	1140
718.0	1136
718.2	1131
718.4	1123
718.6	1113
718.8	1103
719.0	1097
719.2	1086
719.4	1079
719.6	1071
719.8	1063
720.0	1055
720.2	1048
720.4	1036
720.6	1029
720.8	1018
721.0	1013
721.2	1007
721.4	1001
721.6	994.4
721.8	986.8
722.0	973.8
722.2	964.1
722.4	960.6
722.6	957.1
722.8	954.2
723.0	948.8
723.2	937.2
723.4	928.9
723.6	922.6
723.8	917.6
724.0	909.7
724.2	903.6
724.4	890.1
724.6	882.9
724.8	873.4
725.0	868.2
725.2	866.3
725.4	866.1
725.6	860.7
725.8	854.1
726.0	846.2
726.2	836.1
726.4	827.3
726.6	822.0
726.8	816.6
727.0	811.0
727.2	805.5
727.4	797.4
727.6	789.5
727.8	783.1
728.0	776.4
728.2	775.0
728.4	769.3
728.6	760.5
728.8	754.5
729.0	748.9
729.2	741.8
729.4	738.9
729.6	732.9
729.8	722.9
730.0	718.7
730.2	716.8
730.4	710.6
730.6	705.4
730.8	700.2
731.0	689.8
731.2	684.2
731.4	680.2
731.6	674.7
731.8	670.7
732.0	669.9
732.2	665.3
732.4	660.1
732.6	654.9
732.8	645.3
733.0	637.9
733.2	632.0
733.4	625.2
733.6	621.9
733.8	617.6
734.0	613.0
734.2	610.7
734.4	605.1
734.6	599.8
734.8	595.3
735.0	588.9
735.2	584.5
735.4	581.8
735.6	576.2
735.8	574.2
736.0	568.9
736.2	563.7
736.4	556.3
736.6	551.5
736.8	546.3
737.0	544.3
737.2	540.4
737.4	536.0
737.6	530.1
737.8	524.3
738.0	518.9
738.2	512.9
738.4	510.0
738.6	507.3
738.8	503.4
739.0	499.6
739.2	496.5
739.4	492.6
739.6	490.3
739.8	488.3
740.0	484.3
740.2	482.2
740.4	480.7
740.6	476.0
740.8	469.7
741.0	466.1
741.2	462.5
741.4	458.7
741.6	455.6
741.8	451.3
742.0	448.3
742.2	446.6
742.4	441.4
742.6	436.8
742.8	433.7
743.0	429.5
743.2	428.2
743.4	426.7
743.6	421.2
743.8	416.8
744.0	411.8
744.2	407.6
744.4	407.0
744.6	405.0
744.8	400.9
745.0	396.6
745.2	392.2
745.4	391.4
745.6	391.5
745.8	389.0
746.0	385.0
746.2	381.6
746.4	379.3
746.6	376.2
746.8	370.7
747.0	363.6
747.2	360.4
747.4	357.7
747.6	357.9
747.8	357.4
748.0	352.5
748.2	347.9
748.4	347.7
748.6	345.8
748.8	345.0
749.0	344.2
749.2	339.3
749.4	333.4
749.6	329.4
749.8	327.9
750.0	326.7
750.2	326.5
750.4	323.1
750.6	318.6
750.8	314.0
751.0	313.6
751.2	312.0
751.4	309.6
751.6	306.0
751.8	302.2
752.0	299.4
752.2	296.9
752.4	295.1
752.6	293.3
752.8	292.2
753.0	291.1
753.2	289.6
753.4	286.1
753.6	284.1
753.8	281.8
754.0	279.3
754.2	277.5
754.4	274.7
754.6	271.7
754.8	269.2
755.0	268.1
755.2	267.7
755.4	266.1
755.6	263.8
755.8	260.8
756.0	257.6
756.2	256.4
756.4	254.4
756.6	250.9
756.8	250.1
757.0	249.2
757.2	247.4
757.4	246.2
757.6	243.7
757.8	238.8
758.0	238.1
758.2	237.0
758.4	234.3
758.6	232.2
758.8	230.5
759.0	228.2
759.2	226.3
759.4	225.9
759.6	224.9
759.8	222.2
760.0	220.0
760.2	218.7
760.4	214.4
760.6	213.9
760.8	213.4
761.0	211.5
761.2	210.8
761.4	210.3
761.6	208.5
761.8	207.3
762.0	205.2
762.2	203.3
762.4	200.1
762.6	198.7
762.8	197.2
763.0	195.0
763.2	194.8
763.4	193.9
763.6	191.5
763.8	189.5
764.0	187.4
764.2	185.1
764.4	183.5
764.6	182.6
764.8	182.2
765.0	180.6
765.2	179.1
765.4	177.6
765.6	175.3
765.8	172.9
766.0	172.2
766.2	171.8
766.4	170.2
766.6	168.4
766.8	166.6
767.0	164.8
767.2	164.8
767.4	165.0
767.6	161.9
767.8	159.2
768.0	157.2
768.2	156.7
768.4	156.6
768.6	155.4
768.8	152.1
769.0	151.1
769.2	150.3
769.4	149.7
769.6	149.6
769.8	148.1
770.0	146.9
770.2	147.0
770.4	145.3
770.6	143.4
770.8	142.1
771.0	140.2
771.2	138.4
771.4	138.5
771.6	136.8
771.8	135.3
772.0	134.5
772.2	133.3
772.4	131.7
772.6	131.6
772.8	131.0
773.0	129.2
773.2	128.0
773.4	125.9
773.6	124.7
773.8	123.6
774.0	123.8
774.2	122.9
774.4	123.7
774.6	122.1
774.8	120.9
775.0	119.5
775.2	118.9
775.4	118.2
775.6	118.1
775.8	117.2
776.0	115.6
776.2	113.9
776.4	112.2
776.6	111.4
776.8	112.8
777.0	113.6
777.2	113.4
777.4	112.1
777.6	110.1
777.8	107.6
778.0	106.5
778.2	104.6
778.4	103.7
778.6	104.0
778.8	104.1
779.0	104.2
779.2	103.7
779.4	102.1
779.6	100.6
779.8	100.7
780.0	99.00
780.2	100.1
780.4	100.1
780.6	99.41
780.8	98.77
781.0	98.10
781.2	95.81
781.4	96.27
781.6	95.26
781.8	94.48
782.0	94.51
782.2	94.86
782.4	94.34
782.6	93.80
782.8	92.27
783.0	90.93
783.2	89.96
783.4	90.13
783.6	89.88
783.8	88.81
784.0	87.77
784.2	87.08
784.4	86.10
784.6	86.63
784.8	87.00
785.0	87.30
785.2	86.59
785.4	85.93
785.6	85.14
785.8	84.38
786.0	83.72
786.2	84.04
786.4	83.65
786.6	83.45
786.8	82.91
787.0	82.41
787.2	81.12
787.4	81.28
787.6	81.22
787.8	81.43
788.0	80.41
788.2	80.10
788.4	78.14
788.6	77.54
788.8	76.75
789.0	77.21
789.2	77.00
789.4	76.78
789.6	75.55
789.8	74.62
790.0	74.12
790.2	74.41
790.4	74.67
790.6	74.87
790.8	74.73
791.0	74.41
791.2	73.95
791.4	72.99
791.6	72.03
791.8	71.86
792.0	71.97
792.2	71.86
792.4	71.90
792.6	71.54
792.8	70.12
793.0	69.38
793.2	68.77
793.4	68.91
793.6	69.51
793.8	69.90
794.0	68.83
794.2	68.61
794.4	68.29
794.6	67.85
794.8	66.84
795.0	65.87
795.2	65.04
795.4	65.75
795.6	67.49
795.8	67.64
796.0	67.07
796.2	67.09
796.4	66.57
796.6	66.19
796.8	66.01
797.0	65.84
797.2	64.87
797.4	63.70
797.6	63.25
797.8	62.32
798.0	61.76
798.2	62.09
798.4	61.84
798.6	61.09
798.8	61.88
799.0	61.10
799.2	60.63
799.4	60.24
799.6	60.08
799.8	60.08
800.0	60.47
800.2	59.71
800.4	58.54
800.6	59.16
800.8	58.37
801.0	57.91
801.2	57.59
801.4	57.30
801.6	56.11
801.8	56.82
802.0	56.21
802.2	56.24
802.4	55.46
802.6	55.53
802.8	54.95
803.0	54.98
803.2	54.52
803.4	54.81
803.6	54.27
803.8	54.55
804.0	54.31
804.2	54.31
804.4	54.16
804.6	54.36
804.8	54.13
805.0	54.11
805.2	54.14
805.4	53.80
805.6	53.45
805.8	52.99
806.0	52.75
806.2	52.68
806.4	52.62
806.6	52.26
806.8	51.93
807.0	51.14
807.2	50.95
807.4	50.54
807.6	50.28
807.8	50.22
808.0	49.65
808.2	49.22
808.4	49.18
808.6	48.90
808.8	48.65
809.0	47.96
809.2	47.29
809.4	48.16
809.6	48.47
809.8	48.84
810.0	48.66
810.2	47.86
810.4	46.87
810.6	46.28
810.8	45.50
811.0	44.92
811.2	44.98
811.4	45.13
811.6	44.88
811.8	44.60
812.0	44.69
812.2	44.49
812.4	44.37
812.6	43.98
812.8	43.14
813.0	43.15
813.2	43.51
813.4	44.03
813.6	43.87
813.8	42.99
814.0	41.45
814.2	40.08
814.4	39.78
814.6	40.09
814.8	40.67
815.0	41.54
815.2	41.45
815.4	40.84
815.6	40.53
815.8	40.12
816.0	39.79
816.2	39.06
816.4	38.86
816.6	38.09
816.8	37.58
817.0	37.54
817.2	38.35
817.4	38.09
817.6	38.18
817.8	37.23
818.0	36.37
818.2	35.85
818.4	36.14
818.6	36.67
818.8	36.53
819.0	36.04
819.2	35.63
819.4	35.57
819.6	36.02
819.8	36.79
820.0	36.88
820.2	36.59
820.4	36.07
820.6	35.45
820.8	34.61
821.0	33.65
821.2	32.93
821.4	32.67
821.6	32.54
821.8	32.71
822.0	32.47
822.2	32.60
822.4	32.41
822.6	31.92
822.8	31.54
823.0	30.90
823.2	30.34
823.4	30.46
823.6	30.85
823.8	30.62
824.0	30.63
824.2	30.07
824.4	29.58
824.6	29.84
824.8	30.84
825.0	30.50
825.2	30.01
825.4	29.51
825.6	28.75
825.8	28.61
826.0	29.45
826.2	29.02
826.4	28.23
826.6	28.06
826.8	27.23
827.0	26.67
827.2	26.36
827.4	25.91
827.6	25.37
827.8	25.80
828.0	26.05
828.2	26.64
828.4	26.71
828.6	26.72
828.8	26.07
829.0	25.52
829.2	25.76
829.4	26.03
829.6	25.37
829.8	24.67
830.0	23.28
830.2	22.13
830.4	22.11
830.6	22.45
830.8	22.52
831.0	22.59
831.2	22.80
831.4	22.39
831.6	21.77
831.8	21.49
832.0	21.23
832.2	21.04
832.4	21.52
832.6	20.99
832.8	20.77
833.0	20.91
833.2	21.10
833.4	21.42
833.6	21.35
833.8	20.43
834.0	19.53
834.2	18.64
834.4	18.16
834.6	18.35
834.8	18.84
835.0	19.76
835.2	20.07
835.4	19.37
835.6	18.62
835.8	17.68
836.0	16.83
836.2	17.11
836.4	17.72
836.6	17.49
836.8	17.49
837.0	17.07
837.2	16.52
837.4	16.22
837.6	16.10
837.8	15.77
838.0	15.94
838.2	15.94
838.4	16.02
838.6	15.63
838.8	15.75
839.0	15.68
839.2	15.27
839.4	14.62
839.6	14.18
839.8	13.89
840.0	14.67
840.2	14.76
840.4	14.30
840.6	13.83
840.8	13.42
841.0	12.95
841.2	12.96
841.4	12.74
841.6	12.56
841.8	12.40
842.0	11.99
842.2	12.09
842.4	12.05
842.6	12.14
842.8	12.48
843.0	12.57
843.2	12.14
843.4	12.00
843.6	11.32
843.8	10.82
844.0	10.53
844.2	10.51
844.4	10.48
844.6	10.66
844.8	10.60
845.0	10.61
845.2	10.60
845.4	10.55
845.6	10.22
845.8	9.800
846.0	9.670
846.2	9.757
846.4	9.617
846.6	9.486
846.8	9.344
847.0	8.925
847.2	9.372
847.4	9.487
847.6	9.187
847.8	9.056
848.0	9.113
848.2	8.526
848.4	8.417
848.6	8.323
848.8	8.230
849.0	8.369
849.2	8.704
849.4	8.187
849.6	7.874
849.8	7.518
850.0	7.359
850.2	7.475
850.4	7.674
850.6	7.585
850.8	7.424
851.0	7.100
851.2	7.285
851.4	7.351
851.6	7.245
851.8	6.960
852.0	6.997
852.2	7.037
852.4	7.525
852.6	7.453
852.8	7.175
853.0	6.332
853.2	6.087
853.4	6.089
853.6	6.182
853.8	6.241
854.0	6.371
854.2	6.358
854.4	6.407
854.6	6.452
854.8	6.102
855.0	5.998
855.2	5.902
855.4	6.147
855.6	6.015
855.8	5.904
856.0	5.598
856.2	5.472
856.4	5.549
856.6	5.889
856.8	5.825
857.0	5.859
857.2	5.660
857.4	5.524
857.6	5.499
857.8	5.402
858.0	5.521
858.2	5.794
858.4	5.809
858.6	5.459
858.8	4.936
859.0	4.507
859.2	4.539
859.4	4.619
859.6	4.830
859.8	4.723
860.0	4.537
860.2	4.484
860.4	4.508
860.6	4.249
860.8	4.326
861.0	4.373
861.2	4.487
861.4	4.482
861.6	4.630
861.8	4.676
862.0	4.585
862.2	4.439
862.4	4.449
862.6	4.246
862.8	4.193
863.0	4.298
863.2	4.119
863.4	3.961
863.6	4.063
863.8	4.075
864.0	4.069
864.2	4.063
864.4	3.956
864.6	3.935
864.8	3.986
865.0	3.857
865.2	3.906
865.4	3.835
865.6	3.702
865.8	3.858
866.0	3.912
866.2	4.019
866.4	4.109
866.6	3.891
866.8	3.695
867.0	3.732
867.2	3.809
867.4	4.028
867.6	4.014
867.8	3.774
868.0	3.842
868.2	3.880
868.4	3.906
868.6	3.925
868.8	3.755
869.0	3.474
869.2	3.442
869.4	3.440
869.6	3.424
869.8	3.603
870.0	3.666
870.2	3.760
870.4	3.923
870.6	3.951
870.8	3.704
871.0	3.641
871.2	3.715
871.4	3.581
871.6	3.661
871.8	3.786
872.0	3.714
872.2	3.831
872.4	4.030
872.6	3.866
872.8	3.794
873.0	3.596
873.2	3.460
873.4	3.439
873.6	3.387
873.8	3.472
874.0	3.481
874.2	3.403
874.4	3.378
874.6	3.624
874.8	3.786
875.0	3.997
875.2	3.861
875.4	3.694
875.6	3.224
875.8	3.203
876.0	3.204
876.2	3.273
876.4	3.566
876.6	3.807
876.8	3.620
877.0	3.637
877.2	3.749
877.4	3.679
877.6	3.882
877.8	3.674
878.0	3.316
878.2	3.275
878.4	3.325
878.6	3.378
878.8	3.620
879.0	3.566
879.2	3.617
879.4	3.694
879.6	3.732
879.8	3.784
880.0	3.759
880.2	3.602
880.4	3.241
880.6	3.021
880.8	3.081
881.0	3.403
881.2	3.516
881.4	3.785
881.6	3.745
881.8	3.603
882.0	3.575
882.2	3.719
882.4	3.748
882.6	3.771
882.8	3.713
883.0	3.472
883.2	3.423
883.4	3.573
883.6	3.753
883.8	3.511
884.0	3.536
884.2	3.366
884.4	3.272
884.6	3.351
884.8	3.226
885.0	3.210
885.2	3.365
885.4	3.384
885.6	3.354
885.8	3.401
886.0	3.257
886.2	3.281
886.4	3.389
886.6	3.512
886.8	3.469
887.0	3.613
887.2	3.603
887.4	3.643
887.6	3.822
887.8	3.831
888.0	3.670
888.2	3.510
888.4	3.641
888.6	3.595
888.8	3.561
889.0	3.516
889.2	3.561
889.4	3.295
889.6	3.489
889.8	3.337
890.0	3.431
890.2	3.570
890.4	3.683
890.6	3.371
890.8	3.363
891.0	3.371
891.2	3.359
891.4	3.307
891.6	3.315
891.8	3.308
892.0	3.386
892.2	3.408
892.4	3.326
892.6	3.264
892.8	3.343
893.0	3.305
893.2	3.322
893.4	3.152
893.6	3.126
893.8	3.108
894.0	3.219
894.2	3.116
894.4	3.323
894.6	3.467
894.8	3.761
895.0	3.684
895.2	3.695
895.4	3.513
895.6	3.411
895.8	3.594
896.0	3.719
896.2	3.582
896.4	3.610
896.6	3.559
896.8	3.327
897.0	3.181
897.2	3.029
897.4	3.052
897.6	3.318
897.8	3.597
898.0	3.618
898.2	3.427
898.4	3.405
898.6	3.642
898.8	3.979
899.0	4.235
899.2	4.111
899.4	3.534
899.6	2.992
899.8	2.941
900.0	3.785

