Sample:	'20211010A(EM)
File name:	R-CDs 14.FDS
Run date:	'11:40:42, 06/11/2023
Operator:	Administrator
Comment:	'

Instrument
Model:	F-4700 FL Spectrophotometer
Serial number:	2019-001
ROM Version:	5J24010 00

Instrument parameters
Measurement type:	Wavelength scan
Scan mode:	Emission
Data mode:	Fluorescence
EX WL:	520.0 nm
EM  Start WL:	540.0 nm
EM  End WL:	810.0 nm
Scan speed:	1200 nm/min
Delay:	0.0 s
EX Slit:	10.0 nm
EM Slit:	10.0 nm
PMT Voltage:	540 V
Response:	0.002 s
Corrected spectra:	Off
Shutter control:	On

Processing performed
Savitsky-Golay smoothed
Smoothing order:	3
Number of points:	7
Number of times:	1

Peak integration
Integration method:	Rectangular
Sensitivity:	1
Threshold:	1.000

Peaks
No.	Start(nm)	Apex(nm)	End(nm)	Height(Data)	Valley(nm)	Valley(Data)
1	540.0	617.6	618.6	3120	618.6	3110
2	618.6	619.2	621.4	3136	621.4	3099
3	621.4	622.0	788.4	3118	788.4	39.42
4	788.4	789.0	790.8	41.37	790.8	38.18
5	790.8	791.2	798.2	39.33	798.2	32.58
6	798.2	799.2	802.8	33.58	802.8	29.17
7	802.8	804.2	810.0	30.51	810.0	26.20

Data points
nm	Data
540.0	197.2
540.2	196.3
540.4	197.7
540.6	200.5
540.8	202.9
541.0	205.9
541.2	208.6
541.4	211.8
541.6	213.8
541.8	214.9
542.0	214.0
542.2	216.1
542.4	218.3
542.6	221.9
542.8	224.1
543.0	225.3
543.2	225.5
543.4	226.9
543.6	230.1
543.8	233.0
544.0	234.2
544.2	234.0
544.4	233.5
544.6	235.6
544.8	240.1
545.0	244.3
545.2	247.4
545.4	248.1
545.6	248.8
545.8	250.7
546.0	252.1
546.2	254.5
546.4	256.3
546.6	259.3
546.8	262.6
547.0	265.2
547.2	267.8
547.4	268.4
547.6	269.3
547.8	273.8
548.0	277.7
548.2	282.3
548.4	286.0
548.6	285.7
548.8	287.2
549.0	290.3
549.2	293.1
549.4	295.4
549.6	297.8
549.8	299.1
550.0	303.4
550.2	306.6
550.4	310.5
550.6	311.4
550.8	314.8
551.0	317.4
551.2	323.8
551.4	328.6
551.6	332.7
551.8	333.1
552.0	333.2
552.2	330.8
552.4	333.0
552.6	339.8
552.8	346.9
553.0	352.5
553.2	357.5
553.4	359.2
553.6	359.7
553.8	363.7
554.0	365.2
554.2	366.9
554.4	373.0
554.6	378.1
554.8	382.4
555.0	388.3
555.2	391.0
555.4	394.1
555.6	398.7
555.8	401.5
556.0	405.5
556.2	410.5
556.4	413.6
556.6	418.4
556.8	422.4
557.0	427.1
557.2	432.1
557.4	438.3
557.6	441.9
557.8	445.2
558.0	449.5
558.2	454.9
558.4	458.5
558.6	464.0
558.8	467.8
559.0	472.7
559.2	479.4
559.4	486.3
559.6	490.8
559.8	495.2
560.0	498.8
560.2	506.3
560.4	511.8
560.6	517.1
560.8	524.2
561.0	531.6
561.2	538.6
561.4	546.4
561.6	551.3
561.8	554.3
562.0	559.7
562.2	564.3
562.4	569.4
562.6	575.9
562.8	583.9
563.0	594.3
563.2	602.7
563.4	608.7
563.6	614.1
563.8	619.9
564.0	627.2
564.2	634.4
564.4	640.9
564.6	646.6
564.8	654.6
565.0	664.2
565.2	674.7
565.4	680.3
565.6	688.7
565.8	695.5
566.0	705.3
566.2	717.0
566.4	725.2
566.6	728.0
566.8	733.2
567.0	739.3
567.2	749.3
567.4	761.2
567.6	772.1
567.8	780.1
568.0	787.5
568.2	795.0
568.4	806.4
568.6	813.5
568.8	824.0
569.0	833.2
569.2	842.8
569.4	851.0
569.6	863.1
569.8	872.4
570.0	881.3
570.2	886.2
570.4	896.8
570.6	904.9
570.8	920.8
571.0	939.6
571.2	953.1
571.4	961.5
571.6	970.4
571.8	975.6
572.0	983.3
572.2	996.1
572.4	1009
572.6	1020
572.8	1030
573.0	1039
573.2	1050
573.4	1063
573.6	1078
573.8	1088
574.0	1099
574.2	1110
574.4	1126
574.6	1141
574.8	1156
575.0	1168
575.2	1175
575.4	1186
575.6	1198
575.8	1211
576.0	1224
576.2	1240
576.4	1253
576.6	1269
576.8	1281
577.0	1290
577.2	1300
577.4	1311
577.6	1325
577.8	1339
578.0	1348
578.2	1358
578.4	1372
578.6	1385
578.8	1399
579.0	1416
579.2	1430
579.4	1444
579.6	1460
579.8	1473
580.0	1480
580.2	1494
580.4	1506
580.6	1519
580.8	1539
581.0	1558
581.2	1572
581.4	1590
581.6	1603
581.8	1612
582.0	1621
582.2	1634
582.4	1647
582.6	1662
582.8	1676
583.0	1689
583.2	1694
583.4	1708
583.6	1720
583.8	1734
584.0	1747
584.2	1761
584.4	1774
584.6	1791
584.8	1798
585.0	1812
585.2	1824
585.4	1839
585.6	1856
585.8	1867
586.0	1873
586.2	1884
586.4	1903
586.6	1925
586.8	1938
587.0	1952
587.2	1963
587.4	1972
587.6	1990
587.8	2008
588.0	2019
588.2	2033
588.4	2045
588.6	2056
588.8	2063
589.0	2071
589.2	2082
589.4	2096
589.6	2113
589.8	2127
590.0	2137
590.2	2147
590.4	2158
590.6	2173
590.8	2185
591.0	2196
591.2	2213
591.4	2229
591.6	2241
591.8	2247
592.0	2250
592.2	2259
592.4	2276
592.6	2296
592.8	2311
593.0	2319
593.2	2328
593.4	2338
593.6	2345
593.8	2359
594.0	2371
594.2	2385
594.4	2405
594.6	2422
594.8	2432
595.0	2444
595.2	2452
595.4	2459
595.6	2465
595.8	2469
596.0	2473
596.2	2483
596.4	2494
596.6	2510
596.8	2524
597.0	2544
597.2	2553
597.4	2554
597.6	2561
597.8	2571
598.0	2580
598.2	2598
598.4	2597
598.6	2595
598.8	2609
599.0	2626
599.2	2643
599.4	2657
599.6	2660
599.8	2665
600.0	2673
600.2	2689
600.4	2700
600.6	2709
600.8	2717
601.0	2721
601.2	2724
601.4	2727
601.6	2731
601.8	2739
602.0	2748
602.2	2752
602.4	2759
602.6	2762
602.8	2774
603.0	2787
603.2	2798
603.4	2798
603.6	2810
603.8	2814
604.0	2818
604.2	2828
604.4	2838
604.6	2848
604.8	2863
605.0	2867
605.2	2866
605.4	2867
605.6	2869
605.8	2879
606.0	2890
606.2	2896
606.4	2910
606.6	2916
606.8	2924
607.0	2930
607.2	2942
607.4	2947
607.6	2955
607.8	2956
608.0	2956
608.2	2956
608.4	2960
608.6	2964
608.8	2969
609.0	2971
609.2	2979
609.4	2987
609.6	2994
609.8	2995
610.0	3002
610.2	3004
610.4	3004
610.6	3006
610.8	3011
611.0	3012
611.2	3019
611.4	3024
611.6	3026
611.8	3032
612.0	3039
612.2	3046
612.4	3052
612.6	3062
612.8	3074
613.0	3078
613.2	3075
613.4	3067
613.6	3067
613.8	3064
614.0	3077
614.2	3090
614.4	3089
614.6	3091
614.8	3090
615.0	3082
615.2	3086
615.4	3093
615.6	3096
615.8	3095
616.0	3094
616.2	3087
616.4	3090
616.6	3092
616.8	3101
617.0	3103
617.2	3114
617.4	3115
617.6	3120
617.8	3120
618.0	3119
618.2	3112
618.4	3112
618.6	3110
618.8	3117
619.0	3126
619.2	3136
619.4	3131
619.6	3123
619.8	3116
620.0	3119
620.2	3116
620.4	3125
620.6	3120
620.8	3116
621.0	3104
621.2	3103
621.4	3099
621.6	3109
621.8	3112
622.0	3118
622.2	3111
622.4	3112
622.6	3109
622.8	3108
623.0	3102
623.2	3099
623.4	3092
623.6	3088
623.8	3085
624.0	3083
624.2	3085
624.4	3085
624.6	3082
624.8	3084
625.0	3079
625.2	3081
625.4	3081
625.6	3075
625.8	3070
626.0	3068
626.2	3064
626.4	3061
626.6	3062
626.8	3064
627.0	3064
627.2	3064
627.4	3062
627.6	3046
627.8	3037
628.0	3030
628.2	3027
628.4	3023
628.6	3023
628.8	3019
629.0	3019
629.2	3013
629.4	3012
629.6	3004
629.8	2997
630.0	2994
630.2	2992
630.4	2988
630.6	2990
630.8	2984
631.0	2975
631.2	2969
631.4	2960
631.6	2951
631.8	2952
632.0	2945
632.2	2945
632.4	2951
632.6	2947
632.8	2940
633.0	2931
633.2	2917
633.4	2912
633.6	2908
633.8	2904
634.0	2900
634.2	2886
634.4	2880
634.6	2882
634.8	2878
635.0	2873
635.2	2866
635.4	2852
635.6	2848
635.8	2843
636.0	2831
636.2	2822
636.4	2818
636.6	2813
636.8	2815
637.0	2808
637.2	2795
637.4	2788
637.6	2785
637.8	2782
638.0	2783
638.2	2780
638.4	2770
638.6	2762
638.8	2748
639.0	2737
639.2	2727
639.4	2730
639.6	2723
639.8	2719
640.0	2707
640.2	2694
640.4	2680
640.6	2673
640.8	2665
641.0	2660
641.2	2661
641.4	2659
641.6	2652
641.8	2639
642.0	2631
642.2	2620
642.4	2616
642.6	2608
642.8	2603
643.0	2594
643.2	2586
643.4	2578
643.6	2573
643.8	2559
644.0	2558
644.2	2549
644.4	2540
644.6	2532
644.8	2528
645.0	2516
645.2	2508
645.4	2499
645.6	2494
645.8	2484
646.0	2483
646.2	2476
646.4	2467
646.6	2460
646.8	2449
647.0	2438
647.2	2424
647.4	2417
647.6	2406
647.8	2403
648.0	2393
648.2	2383
648.4	2377
648.6	2373
648.8	2365
649.0	2359
649.2	2343
649.4	2333
649.6	2328
649.8	2322
650.0	2317
650.2	2306
650.4	2294
650.6	2289
650.8	2278
651.0	2268
651.2	2258
651.4	2246
651.6	2234
651.8	2230
652.0	2226
652.2	2219
652.4	2213
652.6	2203
652.8	2190
653.0	2187
653.2	2177
653.4	2168
653.6	2165
653.8	2158
654.0	2144
654.2	2134
654.4	2123
654.6	2119
654.8	2115
655.0	2112
655.2	2100
655.4	2088
655.6	2079
655.8	2067
656.0	2054
656.2	2044
656.4	2038
656.6	2032
656.8	2024
657.0	2015
657.2	2007
657.4	1999
657.6	1997
657.8	1990
658.0	1976
658.2	1967
658.4	1959
658.6	1954
658.8	1948
659.0	1941
659.2	1930
659.4	1919
659.6	1909
659.8	1896
660.0	1881
660.2	1874
660.4	1866
660.6	1861
660.8	1858
661.0	1850
661.2	1842
661.4	1833
661.6	1818
661.8	1807
662.0	1801
662.2	1792
662.4	1790
662.6	1783
662.8	1776
663.0	1764
663.2	1754
663.4	1747
663.6	1743
663.8	1737
664.0	1731
664.2	1719
664.4	1712
664.6	1703
664.8	1694
665.0	1682
665.2	1669
665.4	1662
665.6	1660
665.8	1655
666.0	1651
666.2	1644
666.4	1633
666.6	1624
666.8	1615
667.0	1606
667.2	1598
667.4	1591
667.6	1585
667.8	1577
668.0	1572
668.2	1568
668.4	1563
668.6	1557
668.8	1548
669.0	1536
669.2	1528
669.4	1520
669.6	1513
669.8	1507
670.0	1499
670.2	1492
670.4	1486
670.6	1477
670.8	1470
671.0	1464
671.2	1456
671.4	1450
671.6	1447
671.8	1439
672.0	1433
672.2	1426
672.4	1414
672.6	1399
672.8	1393
673.0	1386
673.2	1383
673.4	1381
673.6	1374
673.8	1365
674.0	1360
674.2	1352
674.4	1340
674.6	1332
674.8	1323
675.0	1314
675.2	1311
675.4	1306
675.6	1302
675.8	1299
676.0	1297
676.2	1287
676.4	1279
676.6	1270
676.8	1261
677.0	1252
677.2	1251
677.4	1247
677.6	1245
677.8	1240
678.0	1231
678.2	1222
678.4	1215
678.6	1206
678.8	1198
679.0	1190
679.2	1185
679.4	1180
679.6	1173
679.8	1165
680.0	1161
680.2	1156
680.4	1151
680.6	1145
680.8	1139
681.0	1134
681.2	1127
681.4	1119
681.6	1106
681.8	1097
682.0	1090
682.2	1085
682.4	1082
682.6	1082
682.8	1078
683.0	1075
683.2	1069
683.4	1060
683.6	1054
683.8	1049
684.0	1045
684.2	1039
684.4	1032
684.6	1023
684.8	1019
685.0	1014
685.2	1009
685.4	1003
685.6	998.0
685.8	990.7
686.0	987.0
686.2	982.8
686.4	977.5
686.6	973.6
686.8	968.3
687.0	962.7
687.2	956.5
687.4	949.9
687.6	944.1
687.8	939.0
688.0	930.8
688.2	928.3
688.4	921.9
688.6	916.7
688.8	912.7
689.0	907.7
689.2	899.9
689.4	891.1
689.6	884.4
689.8	881.4
690.0	879.7
690.2	877.6
690.4	874.2
690.6	869.2
690.8	865.2
691.0	858.9
691.2	854.8
691.4	849.6
691.6	848.5
691.8	845.6
692.0	840.7
692.2	832.6
692.4	826.2
692.6	819.1
692.8	818.0
693.0	814.3
693.2	813.3
693.4	811.4
693.6	809.6
693.8	804.0
694.0	796.9
694.2	789.1
694.4	783.2
694.6	779.7
694.8	779.8
695.0	775.0
695.2	770.2
695.4	767.2
695.6	762.3
695.8	759.6
696.0	761.7
696.2	756.7
696.4	754.6
696.6	748.3
696.8	744.4
697.0	742.3
697.2	741.4
697.4	734.9
697.6	729.5
697.8	721.1
698.0	719.4
698.2	718.4
698.4	719.1
698.6	716.4
698.8	713.7
699.0	709.1
699.2	706.1
699.4	701.3
699.6	695.9
699.8	689.6
700.0	688.0
700.2	687.3
700.4	686.3
700.6	683.0
700.8	679.8
701.0	675.7
701.2	671.9
701.4	667.0
701.6	660.8
701.8	655.0
702.0	652.9
702.2	648.8
702.4	648.4
702.6	646.8
702.8	645.9
703.0	643.4
703.2	638.3
703.4	630.8
703.6	627.8
703.8	626.4
704.0	625.3
704.2	623.9
704.4	619.2
704.6	614.3
704.8	609.7
705.0	606.3
705.2	603.6
705.4	601.4
705.6	601.0
705.8	600.2
706.0	596.8
706.2	594.8
706.4	590.9
706.6	585.5
706.8	582.6
707.0	579.6
707.2	575.0
707.4	572.3
707.6	566.7
707.8	565.1
708.0	560.4
708.2	559.4
708.4	558.2
708.6	553.3
708.8	547.5
709.0	545.5
709.2	542.4
709.4	541.9
709.6	541.8
709.8	540.4
710.0	534.7
710.2	528.1
710.4	523.5
710.6	519.0
710.8	516.3
711.0	515.4
711.2	513.1
711.4	508.6
711.6	505.2
711.8	505.3
712.0	504.7
712.2	502.7
712.4	500.7
712.6	497.0
712.8	493.3
713.0	491.7
713.2	489.5
713.4	488.1
713.6	486.1
713.8	483.0
714.0	476.9
714.2	472.2
714.4	468.9
714.6	467.2
714.8	465.3
715.0	463.4
715.2	458.4
715.4	455.2
715.6	451.4
715.8	447.0
716.0	444.4
716.2	443.4
716.4	441.2
716.6	438.7
716.8	436.0
717.0	431.9
717.2	428.9
717.4	426.7
717.6	422.1
717.8	420.2
718.0	418.5
718.2	418.6
718.4	417.4
718.6	414.9
718.8	413.5
719.0	411.7
719.2	407.7
719.4	401.4
719.6	394.4
719.8	388.0
720.0	388.6
720.2	388.7
720.4	389.2
720.6	385.8
720.8	382.5
721.0	382.5
721.2	379.4
721.4	374.7
721.6	370.6
721.8	367.2
722.0	364.7
722.2	366.7
722.4	364.5
722.6	361.3
722.8	357.1
723.0	353.9
723.2	349.3
723.4	347.6
723.6	345.7
723.8	344.6
724.0	341.0
724.2	339.6
724.4	337.3
724.6	337.1
724.8	334.7
725.0	333.6
725.2	330.7
725.4	328.3
725.6	326.3
725.8	324.2
726.0	319.6
726.2	316.3
726.4	313.7
726.6	311.5
726.8	310.2
727.0	310.1
727.2	307.3
727.4	304.1
727.6	301.0
727.8	300.0
728.0	297.3
728.2	296.3
728.4	295.0
728.6	293.6
728.8	291.2
729.0	290.6
729.2	286.1
729.4	283.4
729.6	282.5
729.8	281.7
730.0	279.1
730.2	276.7
730.4	272.2
730.6	269.7
730.8	267.2
731.0	266.9
731.2	265.1
731.4	264.6
731.6	264.1
731.8	263.9
732.0	261.2
732.2	258.0
732.4	255.3
732.6	253.2
732.8	251.8
733.0	252.2
733.2	250.0
733.4	245.8
733.6	243.1
733.8	240.6
734.0	238.2
734.2	237.8
734.4	236.6
734.6	236.8
734.8	234.9
735.0	233.4
735.2	230.8
735.4	229.9
735.6	229.0
735.8	228.4
736.0	226.1
736.2	224.7
736.4	223.0
736.6	222.3
736.8	220.2
737.0	217.3
737.2	213.2
737.4	211.8
737.6	212.2
737.8	212.5
738.0	211.9
738.2	209.3
738.4	205.8
738.6	203.5
738.8	202.2
739.0	201.3
739.2	201.4
739.4	200.6
739.6	200.8
739.8	201.2
740.0	198.1
740.2	195.6
740.4	193.8
740.6	191.6
740.8	189.8
741.0	188.4
741.2	184.9
741.4	184.7
741.6	184.1
741.8	182.6
742.0	182.6
742.2	181.0
742.4	179.7
742.6	180.9
742.8	181.0
743.0	179.1
743.2	177.0
743.4	175.3
743.6	172.9
743.8	172.1
744.0	171.5
744.2	171.3
744.4	169.7
744.6	169.6
744.8	167.9
745.0	166.0
745.2	164.2
745.4	163.8
745.6	162.7
745.8	162.2
746.0	160.5
746.2	158.5
746.4	156.8
746.6	153.8
746.8	152.1
747.0	151.0
747.2	151.1
747.4	151.1
747.6	151.0
747.8	148.8
748.0	148.1
748.2	147.6
748.4	147.9
748.6	146.1
748.8	144.5
749.0	142.0
749.2	142.0
749.4	142.6
749.6	142.3
749.8	141.5
750.0	140.5
750.2	139.0
750.4	138.0
750.6	136.4
750.8	134.1
751.0	133.7
751.2	132.8
751.4	132.7
751.6	132.1
751.8	131.6
752.0	131.6
752.2	131.3
752.4	130.5
752.6	128.4
752.8	125.4
753.0	124.9
753.2	123.9
753.4	123.7
753.6	123.3
753.8	121.9
754.0	119.1
754.2	118.8
754.4	117.5
754.6	118.6
754.8	118.4
755.0	118.1
755.2	116.8
755.4	115.9
755.6	114.4
755.8	113.5
756.0	112.5
756.2	111.4
756.4	111.1
756.6	110.8
756.8	109.6
757.0	107.6
757.2	107.7
757.4	107.7
757.6	108.1
757.8	107.7
758.0	106.6
758.2	103.8
758.4	102.4
758.6	101.1
758.8	100.3
759.0	99.81
759.2	100.1
759.4	99.20
759.6	98.77
759.8	98.34
760.0	97.75
760.2	98.30
760.4	97.45
760.6	95.90
760.8	95.04
761.0	93.52
761.2	91.95
761.4	92.48
761.6	91.68
761.8	90.79
762.0	91.54
762.2	91.88
762.4	90.23
762.6	89.67
762.8	89.00
763.0	87.72
763.2	87.62
763.4	87.74
763.6	87.04
763.8	86.52
764.0	86.21
764.2	84.18
764.4	83.30
764.6	83.36
764.8	83.73
765.0	82.88
765.2	81.69
765.4	79.64
765.6	79.09
765.8	79.27
766.0	78.97
766.2	78.60
766.4	79.22
766.6	79.41
766.8	79.15
767.0	77.80
767.2	76.49
767.4	75.34
767.6	75.06
767.8	74.79
768.0	74.52
768.2	73.50
768.4	73.25
768.6	72.96
768.8	72.45
769.0	72.00
769.2	70.58
769.4	70.16
769.6	70.44
769.8	70.87
770.0	70.83
770.2	70.47
770.4	68.72
770.6	67.82
770.8	67.56
771.0	67.86
771.2	67.40
771.4	67.51
771.6	66.54
771.8	64.39
772.0	63.36
772.2	63.31
772.4	63.10
772.6	63.92
772.8	64.09
773.0	63.36
773.2	62.85
773.4	62.02
773.6	61.58
773.8	61.82
774.0	61.51
774.2	61.08
774.4	59.62
774.6	58.45
774.8	58.19
775.0	58.51
775.2	58.08
775.4	58.27
775.6	57.58
775.8	57.32
776.0	57.57
776.2	57.39
776.4	56.15
776.6	55.07
776.8	54.63
777.0	54.79
777.2	55.53
777.4	55.60
777.6	55.15
777.8	53.52
778.0	53.42
778.2	53.15
778.4	53.81
778.6	53.77
778.8	53.13
779.0	51.73
779.2	51.93
779.4	51.40
779.6	51.93
779.8	51.79
780.0	50.31
780.2	48.72
780.4	49.13
780.6	48.92
780.8	49.29
781.0	49.70
781.2	48.79
781.4	48.34
781.6	48.85
781.8	48.14
782.0	48.17
782.2	48.07
782.4	47.12
782.6	47.17
782.8	46.25
783.0	45.06
783.2	45.22
783.4	44.66
783.6	44.80
783.8	44.91
784.0	44.46
784.2	44.45
784.4	44.42
784.6	43.78
784.8	44.13
785.0	43.98
785.2	44.20
785.4	43.87
785.6	42.90
785.8	41.71
786.0	41.70
786.2	41.61
786.4	42.29
786.6	42.36
786.8	41.89
787.0	41.63
787.2	41.65
787.4	40.92
787.6	40.96
787.8	40.61
788.0	39.47
788.2	40.00
788.4	39.42
788.6	40.26
788.8	41.20
789.0	41.37
789.2	40.47
789.4	39.95
789.6	38.87
789.8	38.78
790.0	39.08
790.2	38.96
790.4	38.45
790.6	38.24
790.8	38.18
791.0	38.35
791.2	39.33
791.4	39.27
791.6	38.57
791.8	38.06
792.0	37.35
792.2	36.98
792.4	37.47
792.6	37.55
792.8	37.07
793.0	36.57
793.2	36.43
793.4	36.47
793.6	37.29
793.8	37.42
794.0	36.61
794.2	35.85
794.4	34.93
794.6	35.01
794.8	35.71
795.0	36.07
795.2	36.07
795.4	35.74
795.6	34.31
795.8	33.82
796.0	33.80
796.2	33.99
796.4	34.08
796.6	33.82
796.8	33.44
797.0	33.08
797.2	33.45
797.4	33.42
797.6	32.99
797.8	32.92
798.0	33.35
798.2	32.58
798.4	33.28
798.6	33.33
798.8	33.07
799.0	33.32
799.2	33.58
799.4	32.58
799.6	32.47
799.8	32.18
800.0	31.91
800.2	31.89
800.4	32.21
800.6	32.16
800.8	32.13
801.0	31.96
801.2	31.89
801.4	31.50
801.6	31.16
801.8	31.31
802.0	31.14
802.2	30.48
802.4	30.52
802.6	29.87
802.8	29.17
803.0	29.92
803.2	29.86
803.4	29.56
803.6	29.94
803.8	30.08
804.0	30.21
804.2	30.51
804.4	29.65
804.6	29.43
804.8	29.37
805.0	29.14
805.2	29.11
805.4	29.00
805.6	28.47
805.8	29.19
806.0	29.41
806.2	28.97
806.4	28.14
806.6	27.60
806.8	27.00
807.0	27.49
807.2	28.20
807.4	28.31
807.6	27.41
807.8	26.75
808.0	26.61
808.2	26.82
808.4	27.75
808.6	27.92
808.8	27.27
809.0	26.95
809.2	27.33
809.4	27.07
809.6	27.04
809.8	26.79
810.0	26.20

