Sample:	'20211010A(EM)
File name:	G-c-NI-dots-CHO 300S2-.FDS
Run date:	'17:08:31, 03/22/2023
Operator:	Administrator
Comment:	'

Instrument
Model:	F-4700 FL Spectrophotometer
Serial number:	2019-001
ROM Version:	5J24010 00

Instrument parameters
Measurement type:	Wavelength scan
Scan mode:	Emission
Data mode:	Fluorescence
EX WL:	400.0 nm
EM  Start WL:	420.0 nm
EM  End WL:	850.0 nm
Scan speed:	1200 nm/min
Delay:	0.0 s
EX Slit:	10.0 nm
EM Slit:	10.0 nm
PMT Voltage:	410 V
Response:	0.002 s
Corrected spectra:	Off
Shutter control:	On

Processing performed
Savitsky-Golay smoothed
Smoothing order:	3
Number of points:	7
Number of times:	1

Peak integration
Integration method:	Rectangular
Sensitivity:	1
Threshold:	1.000

Peaks
No.	Start(nm)	Apex(nm)	End(nm)	Height(Data)	Valley(nm)	Valley(Data)
1	420.0	529.8	530.6	6893	530.6	6874
2	530.6	532.0	778.4	6898	778.4	5.061
3	778.4	803.8	850.0	94.91	850.0	1.873

Data points
nm	Data
420.0	19.51
420.2	19.91
420.4	20.06
420.6	20.05
420.8	20.05
421.0	20.06
421.2	20.22
421.4	20.33
421.6	20.36
421.8	20.37
422.0	20.38
422.2	20.39
422.4	20.54
422.6	20.78
422.8	20.92
423.0	21.01
423.2	21.28
423.4	21.13
423.6	21.07
423.8	21.24
424.0	21.33
424.2	21.43
424.4	21.97
424.6	21.84
424.8	21.73
425.0	21.57
425.2	21.54
425.4	21.63
425.6	21.86
425.8	21.93
426.0	22.00
426.2	22.21
426.4	22.37
426.6	22.46
426.8	22.40
427.0	22.44
427.2	22.60
427.4	22.80
427.6	22.89
427.8	23.22
428.0	23.31
428.2	23.37
428.4	23.76
428.6	23.99
428.8	24.15
429.0	24.40
429.2	24.35
429.4	24.05
429.6	24.25
429.8	24.15
430.0	24.20
430.2	24.41
430.4	24.78
430.6	24.91
430.8	25.23
431.0	24.93
431.2	24.94
431.4	24.98
431.6	25.45
431.8	25.77
432.0	26.00
432.2	25.95
432.4	26.07
432.6	26.08
432.8	26.45
433.0	26.72
433.2	26.83
433.4	26.93
433.6	27.11
433.8	27.25
434.0	27.48
434.2	27.92
434.4	28.17
434.6	28.17
434.8	28.31
435.0	28.47
435.2	28.53
435.4	29.09
435.6	29.43
435.8	29.64
436.0	29.97
436.2	30.48
436.4	30.61
436.6	31.08
436.8	31.11
437.0	31.20
437.2	31.33
437.4	31.56
437.6	31.60
437.8	32.30
438.0	32.86
438.2	33.19
438.4	33.51
438.6	33.63
438.8	33.65
439.0	34.34
439.2	35.12
439.4	35.31
439.6	35.58
439.8	35.89
440.0	36.21
440.2	37.00
440.4	37.59
440.6	38.03
440.8	38.50
441.0	38.95
441.2	39.53
441.4	40.16
441.6	40.32
441.8	41.01
442.0	41.60
442.2	41.86
442.4	42.55
442.6	42.97
442.8	43.58
443.0	44.58
443.2	45.36
443.4	45.92
443.6	46.45
443.8	46.68
444.0	47.24
444.2	48.06
444.4	49.12
444.6	50.33
444.8	51.23
445.0	51.98
445.2	52.75
445.4	53.72
445.6	54.32
445.8	55.11
446.0	55.69
446.2	56.75
446.4	58.19
446.6	59.48
446.8	60.23
447.0	61.16
447.2	61.70
447.4	63.16
447.6	64.44
447.8	65.65
448.0	66.36
448.2	67.40
448.4	68.55
448.6	70.19
448.8	71.53
449.0	73.03
449.2	74.22
449.4	75.78
449.6	77.34
449.8	78.79
450.0	80.00
450.2	81.32
450.4	82.81
450.6	84.40
450.8	86.06
451.0	87.82
451.2	89.43
451.4	91.59
451.6	93.58
451.8	95.47
452.0	97.30
452.2	99.21
452.4	100.7
452.6	102.7
452.8	104.7
453.0	106.7
453.2	108.7
453.4	111.2
453.6	113.5
453.8	116.1
454.0	118.6
454.2	121.3
454.4	123.8
454.6	127.0
454.8	130.5
455.0	133.5
455.2	136.3
455.4	139.4
455.6	141.7
455.8	145.3
456.0	148.7
456.2	152.1
456.4	156.1
456.6	160.0
456.8	163.4
457.0	167.6
457.2	171.0
457.4	174.4
457.6	178.0
457.8	182.7
458.0	187.5
458.2	192.9
458.4	197.9
458.6	201.9
458.8	206.5
459.0	211.2
459.2	216.4
459.4	223.0
459.6	229.3
459.8	235.7
460.0	241.9
460.2	247.2
460.4	252.7
460.6	259.1
460.8	265.8
461.0	273.4
461.2	280.4
461.4	288.0
461.6	295.0
461.8	302.1
462.0	308.9
462.2	317.0
462.4	324.7
462.6	333.4
462.8	341.9
463.0	351.3
463.2	360.6
463.4	369.9
463.6	378.2
463.8	387.3
464.0	396.4
464.2	406.5
464.4	416.9
464.6	427.1
464.8	437.2
465.0	448.3
465.2	458.9
465.4	469.6
465.6	479.7
465.8	491.4
466.0	503.8
466.2	517.1
466.4	530.0
466.6	542.3
466.8	552.9
467.0	564.9
467.2	577.1
467.4	590.2
467.6	604.6
467.8	619.7
468.0	634.5
468.2	648.7
468.4	661.4
468.6	675.1
468.8	688.8
469.0	704.1
469.2	720.9
469.4	737.7
469.6	754.6
469.8	771.9
470.0	787.7
470.2	803.9
470.4	819.6
470.6	836.0
470.8	853.9
471.0	871.9
471.2	889.3
471.4	906.8
471.6	923.8
471.8	942.2
472.0	962.1
472.2	981.5
472.4	1001
472.6	1020
472.8	1038
473.0	1056
473.2	1075
473.4	1094
473.6	1113
473.8	1135
474.0	1155
474.2	1176
474.4	1197
474.6	1218
474.8	1238
475.0	1260
475.2	1281
475.4	1304
475.6	1325
475.8	1347
476.0	1370
476.2	1392
476.4	1415
476.6	1435
476.8	1456
477.0	1479
477.2	1504
477.4	1529
477.6	1553
477.8	1574
478.0	1595
478.2	1618
478.4	1641
478.6	1664
478.8	1687
479.0	1711
479.2	1735
479.4	1761
479.6	1785
479.8	1809
480.0	1831
480.2	1855
480.4	1880
480.6	1907
480.8	1935
481.0	1962
481.2	1986
481.4	2011
481.6	2034
481.8	2058
482.0	2083
482.2	2110
482.4	2137
482.6	2164
482.8	2191
483.0	2216
483.2	2240
483.4	2265
483.6	2291
483.8	2318
484.0	2346
484.2	2373
484.4	2401
484.6	2428
484.8	2454
485.0	2482
485.2	2507
485.4	2534
485.6	2558
485.8	2585
486.0	2609
486.2	2641
486.4	2668
486.6	2695
486.8	2722
487.0	2750
487.2	2778
487.4	2808
487.6	2836
487.8	2863
488.0	2888
488.2	2914
488.4	2941
488.6	2967
488.8	2993
489.0	3021
489.2	3045
489.4	3072
489.6	3099
489.8	3129
490.0	3161
490.2	3193
490.4	3221
490.6	3247
490.8	3273
491.0	3302
491.2	3330
491.4	3357
491.6	3383
491.8	3409
492.0	3439
492.2	3466
492.4	3492
492.6	3517
492.8	3542
493.0	3573
493.2	3604
493.4	3635
493.6	3664
493.8	3689
494.0	3714
494.2	3743
494.4	3769
494.6	3801
494.8	3835
495.0	3866
495.2	3896
495.4	3924
495.6	3949
495.8	3977
496.0	4009
496.2	4036
496.4	4063
496.6	4089
496.8	4115
497.0	4145
497.2	4168
497.4	4195
497.6	4221
497.8	4247
498.0	4272
498.2	4299
498.4	4321
498.6	4348
498.8	4375
499.0	4409
499.2	4439
499.4	4468
499.6	4498
499.8	4523
500.0	4550
500.2	4581
500.4	4610
500.6	4641
500.8	4669
501.0	4696
501.2	4722
501.4	4749
501.6	4775
501.8	4803
502.0	4827
502.2	4854
502.4	4877
502.6	4900
502.8	4921
503.0	4949
503.2	4974
503.4	5003
503.6	5025
503.8	5047
504.0	5070
504.2	5099
504.4	5127
504.6	5157
504.8	5179
505.0	5202
505.2	5225
505.4	5254
505.6	5280
505.8	5310
506.0	5338
506.2	5365
506.4	5390
506.6	5412
506.8	5429
507.0	5453
507.2	5473
507.4	5496
507.6	5519
507.8	5537
508.0	5560
508.2	5584
508.4	5605
508.6	5629
508.8	5652
509.0	5674
509.2	5699
509.4	5722
509.6	5739
509.8	5760
510.0	5779
510.2	5802
510.4	5825
510.6	5850
510.8	5870
511.0	5894
511.2	5914
511.4	5933
511.6	5949
511.8	5966
512.0	5979
512.2	5998
512.4	6019
512.6	6041
512.8	6058
513.0	6078
513.2	6091
513.4	6112
513.6	6133
513.8	6155
514.0	6175
514.2	6195
514.4	6209
514.6	6227
514.8	6238
515.0	6252
515.2	6268
515.4	6281
515.6	6300
515.8	6321
516.0	6340
516.2	6357
516.4	6369
516.6	6379
516.8	6391
517.0	6406
517.2	6419
517.4	6434
517.6	6452
517.8	6469
518.0	6485
518.2	6497
518.4	6508
518.6	6520
518.8	6525
519.0	6534
519.2	6544
519.4	6554
519.6	6572
519.8	6586
520.0	6597
520.2	6605
520.4	6610
520.6	6623
520.8	6635
521.0	6648
521.2	6660
521.4	6670
521.6	6680
521.8	6692
522.0	6701
522.2	6711
522.4	6716
522.6	6725
522.8	6733
523.0	6740
523.2	6750
523.4	6763
523.6	6770
523.8	6777
524.0	6782
524.2	6783
524.4	6786
524.6	6794
524.8	6800
525.0	6807
525.2	6812
525.4	6817
525.6	6823
525.8	6827
526.0	6834
526.2	6839
526.4	6841
526.6	6845
526.8	6846
527.0	6849
527.2	6856
527.4	6862
527.6	6866
527.8	6864
528.0	6864
528.2	6865
528.4	6871
528.6	6882
528.8	6882
529.0	6881
529.2	6883
529.4	6884
529.6	6890
529.8	6893
530.0	6885
530.2	6879
530.4	6874
530.6	6874
530.8	6878
531.0	6883
531.2	6884
531.4	6885
531.6	6888
531.8	6893
532.0	6898
532.2	6896
532.4	6892
532.6	6889
532.8	6884
533.0	6884
533.2	6884
533.4	6880
533.6	6881
533.8	6874
534.0	6866
534.2	6861
534.4	6859
534.6	6860
534.8	6860
535.0	6856
535.2	6856
535.4	6851
535.6	6851
535.8	6844
536.0	6839
536.2	6834
536.4	6827
536.6	6822
536.8	6816
537.0	6812
537.2	6809
537.4	6804
537.6	6802
537.8	6796
538.0	6789
538.2	6780
538.4	6766
538.6	6758
538.8	6755
539.0	6750
539.2	6746
539.4	6735
539.6	6726
539.8	6717
540.0	6712
540.2	6703
540.4	6694
540.6	6687
540.8	6681
541.0	6673
541.2	6670
541.4	6660
541.6	6657
541.8	6647
542.0	6643
542.2	6636
542.4	6627
542.6	6615
542.8	6601
543.0	6587
543.2	6578
543.4	6568
543.6	6558
543.8	6544
544.0	6530
544.2	6523
544.4	6515
544.6	6510
544.8	6503
545.0	6493
545.2	6484
545.4	6472
545.6	6461
545.8	6452
546.0	6441
546.2	6430
546.4	6416
546.6	6403
546.8	6389
547.0	6379
547.2	6367
547.4	6357
547.6	6348
547.8	6335
548.0	6315
548.2	6300
548.4	6280
548.6	6270
548.8	6264
549.0	6257
549.2	6243
549.4	6228
549.6	6212
549.8	6198
550.0	6187
550.2	6177
550.4	6162
550.6	6146
550.8	6133
551.0	6121
551.2	6112
551.4	6098
551.6	6085
551.8	6073
552.0	6063
552.2	6049
552.4	6028
552.6	6010
552.8	5992
553.0	5980
553.2	5966
553.4	5950
553.6	5932
553.8	5917
554.0	5900
554.2	5882
554.4	5863
554.6	5852
554.8	5842
555.0	5830
555.2	5822
555.4	5807
555.6	5789
555.8	5769
556.0	5751
556.2	5735
556.4	5722
556.6	5713
556.8	5700
557.0	5680
557.2	5664
557.4	5645
557.6	5628
557.8	5613
558.0	5594
558.2	5571
558.4	5556
558.6	5539
558.8	5524
559.0	5508
559.2	5490
559.4	5472
559.6	5461
559.8	5445
560.0	5431
560.2	5414
560.4	5395
560.6	5380
560.8	5363
561.0	5346
561.2	5329
561.4	5311
561.6	5295
561.8	5280
562.0	5262
562.2	5245
562.4	5221
562.6	5202
562.8	5183
563.0	5167
563.2	5150
563.4	5131
563.6	5112
563.8	5097
564.0	5081
564.2	5068
564.4	5054
564.6	5040
564.8	5025
565.0	5011
565.2	4992
565.4	4974
565.6	4954
565.8	4938
566.0	4920
566.2	4904
566.4	4884
566.6	4868
566.8	4851
567.0	4835
567.2	4817
567.4	4796
567.6	4778
567.8	4762
568.0	4742
568.2	4727
568.4	4711
568.6	4691
568.8	4674
569.0	4651
569.2	4626
569.4	4604
569.6	4586
569.8	4568
570.0	4554
570.2	4539
570.4	4522
570.6	4508
570.8	4494
571.0	4476
571.2	4458
571.4	4441
571.6	4426
571.8	4415
572.0	4399
572.2	4385
572.4	4366
572.6	4348
572.8	4329
573.0	4307
573.2	4287
573.4	4267
573.6	4251
573.8	4236
574.0	4220
574.2	4202
574.4	4185
574.6	4164
574.8	4149
575.0	4131
575.2	4113
575.4	4096
575.6	4081
575.8	4060
576.0	4044
576.2	4029
576.4	4013
576.6	3997
576.8	3984
577.0	3964
577.2	3946
577.4	3931
577.6	3914
577.8	3898
578.0	3882
578.2	3865
578.4	3845
578.6	3828
578.8	3813
579.0	3799
579.2	3783
579.4	3767
579.6	3748
579.8	3730
580.0	3712
580.2	3697
580.4	3682
580.6	3668
580.8	3655
581.0	3641
581.2	3624
581.4	3610
581.6	3597
581.8	3582
582.0	3564
582.2	3544
582.4	3525
582.6	3508
582.8	3494
583.0	3481
583.2	3464
583.4	3448
583.6	3433
583.8	3418
584.0	3404
584.2	3389
584.4	3373
584.6	3358
584.8	3343
585.0	3328
585.2	3314
585.4	3298
585.6	3283
585.8	3268
586.0	3251
586.2	3236
586.4	3221
586.6	3206
586.8	3190
587.0	3171
587.2	3156
587.4	3141
587.6	3128
587.8	3115
588.0	3103
588.2	3089
588.4	3079
588.6	3063
588.8	3049
589.0	3034
589.2	3020
589.4	3005
589.6	2991
589.8	2978
590.0	2965
590.2	2954
590.4	2942
590.6	2929
590.8	2912
591.0	2891
591.2	2875
591.4	2859
591.6	2849
591.8	2840
592.0	2827
592.2	2813
592.4	2800
592.6	2784
592.8	2772
593.0	2758
593.2	2744
593.4	2730
593.6	2717
593.8	2702
594.0	2688
594.2	2675
594.4	2663
594.6	2651
594.8	2640
595.0	2626
595.2	2611
595.4	2596
595.6	2580
595.8	2566
596.0	2552
596.2	2538
596.4	2528
596.6	2518
596.8	2506
597.0	2493
597.2	2480
597.4	2468
597.6	2458
597.8	2447
598.0	2435
598.2	2420
598.4	2408
598.6	2397
598.8	2385
599.0	2372
599.2	2361
599.4	2350
599.6	2339
599.8	2326
600.0	2313
600.2	2298
600.4	2285
600.6	2274
600.8	2262
601.0	2248
601.2	2237
601.4	2224
601.6	2212
601.8	2200
602.0	2188
602.2	2176
602.4	2165
602.6	2154
602.8	2145
603.0	2135
603.2	2126
603.4	2117
603.6	2107
603.8	2096
604.0	2083
604.2	2070
604.4	2061
604.6	2049
604.8	2038
605.0	2026
605.2	2013
605.4	2003
605.6	1992
605.8	1979
606.0	1968
606.2	1956
606.4	1946
606.6	1935
606.8	1925
607.0	1913
607.2	1904
607.4	1894
607.6	1886
607.8	1876
608.0	1865
608.2	1854
608.4	1843
608.6	1831
608.8	1821
609.0	1810
609.2	1799
609.4	1791
609.6	1782
609.8	1772
610.0	1761
610.2	1750
610.4	1737
610.6	1727
610.8	1718
611.0	1709
611.2	1701
611.4	1692
611.6	1681
611.8	1670
612.0	1662
612.2	1653
612.4	1645
612.6	1633
612.8	1625
613.0	1615
613.2	1606
613.4	1594
613.6	1585
613.8	1576
614.0	1569
614.2	1561
614.4	1551
614.6	1539
614.8	1528
615.0	1518
615.2	1509
615.4	1502
615.6	1494
615.8	1486
616.0	1477
616.2	1468
616.4	1459
616.6	1450
616.8	1443
617.0	1435
617.2	1426
617.4	1416
617.6	1406
617.8	1397
618.0	1390
618.2	1383
618.4	1374
618.6	1365
618.8	1357
619.0	1348
619.2	1339
619.4	1331
619.6	1322
619.8	1315
620.0	1306
620.2	1299
620.4	1290
620.6	1283
620.8	1276
621.0	1268
621.2	1259
621.4	1249
621.6	1240
621.8	1234
622.0	1227
622.2	1220
622.4	1214
622.6	1205
622.8	1197
623.0	1190
623.2	1184
623.4	1177
623.6	1169
623.8	1161
624.0	1152
624.2	1145
624.4	1139
624.6	1131
624.8	1124
625.0	1118
625.2	1111
625.4	1104
625.6	1096
625.8	1087
626.0	1080
626.2	1073
626.4	1069
626.6	1062
626.8	1055
627.0	1048
627.2	1041
627.4	1034
627.6	1027
627.8	1020
628.0	1012
628.2	1005
628.4	997.8
628.6	990.8
628.8	985.4
629.0	979.7
629.2	973.6
629.4	966.4
629.6	959.1
629.8	951.8
630.0	945.1
630.2	938.7
630.4	933.2
630.6	927.9
630.8	922.7
631.0	917.2
631.2	910.4
631.4	904.2
631.6	897.6
631.8	891.0
632.0	884.8
632.2	878.2
632.4	872.5
632.6	866.4
632.8	861.2
633.0	855.9
633.2	850.1
633.4	845.3
633.6	840.4
633.8	835.2
634.0	830.4
634.2	824.5
634.4	818.9
634.6	813.5
634.8	808.2
635.0	802.9
635.2	797.0
635.4	791.3
635.6	785.4
635.8	779.0
636.0	774.7
636.2	768.3
636.4	763.6
636.6	759.6
636.8	755.2
637.0	750.0
637.2	745.2
637.4	738.3
637.6	733.3
637.8	727.8
638.0	724.2
638.2	719.8
638.4	715.7
638.6	711.5
638.8	707.3
639.0	701.8
639.2	697.2
639.4	691.5
639.6	685.9
639.8	681.3
640.0	677.1
640.2	672.5
640.4	668.4
640.6	664.0
640.8	658.9
641.0	654.9
641.2	650.5
641.4	645.9
641.6	642.0
641.8	638.2
642.0	632.9
642.2	627.7
642.4	622.4
642.6	617.2
642.8	612.9
643.0	609.2
643.2	605.0
643.4	601.6
643.6	597.8
643.8	593.2
644.0	588.9
644.2	584.4
644.4	581.2
644.6	577.6
644.8	573.5
645.0	569.5
645.2	566.0
645.4	562.1
645.6	559.0
645.8	554.6
646.0	550.1
646.2	546.3
646.4	542.8
646.6	538.9
646.8	534.7
647.0	530.1
647.2	525.9
647.4	522.9
647.6	520.6
647.8	517.3
648.0	514.0
648.2	510.1
648.4	506.7
648.6	503.5
648.8	499.3
649.0	495.4
649.2	492.5
649.4	488.4
649.6	485.4
649.8	482.4
650.0	478.3
650.2	474.6
650.4	471.9
650.6	467.5
650.8	463.7
651.0	460.8
651.2	457.8
651.4	454.4
651.6	452.3
651.8	448.9
652.0	445.1
652.2	440.9
652.4	437.9
652.6	435.1
652.8	433.1
653.0	430.9
653.2	427.3
653.4	423.8
653.6	421.1
653.8	417.8
654.0	414.9
654.2	411.4
654.4	407.8
654.6	405.4
654.8	402.3
655.0	399.5
655.2	397.1
655.4	393.3
655.6	389.9
655.8	386.9
656.0	384.3
656.2	382.2
656.4	379.9
656.6	377.7
656.8	374.6
657.0	371.5
657.2	368.6
657.4	366.6
657.6	364.0
657.8	362.4
658.0	359.7
658.2	356.8
658.4	353.5
658.6	351.2
658.8	348.5
659.0	346.0
659.2	343.9
659.4	341.3
659.6	338.0
659.8	335.1
660.0	332.3
660.2	329.6
660.4	328.2
660.6	326.1
660.8	323.6
661.0	321.0
661.2	318.3
661.4	315.2
661.6	313.2
661.8	311.2
662.0	308.8
662.2	306.7
662.4	304.8
662.6	302.4
662.8	300.2
663.0	298.0
663.2	295.4
663.4	293.1
663.6	291.6
663.8	290.1
664.0	288.4
664.2	286.1
664.4	283.3
664.6	281.0
664.8	279.1
665.0	276.9
665.2	274.5
665.4	272.2
665.6	270.2
665.8	268.7
666.0	267.6
666.2	265.9
666.4	263.7
666.6	261.4
666.8	259.1
667.0	256.5
667.2	254.9
667.4	253.3
667.6	251.4
667.8	249.3
668.0	247.4
668.2	245.0
668.4	243.2
668.6	241.3
668.8	239.8
669.0	237.8
669.2	236.2
669.4	234.5
669.6	232.7
669.8	231.2
670.0	229.7
670.2	227.8
670.4	225.9
670.6	224.0
670.8	222.0
671.0	220.8
671.2	218.6
671.4	217.5
671.6	215.8
671.8	214.7
672.0	212.9
672.2	211.4
672.4	209.6
672.6	208.6
672.8	206.8
673.0	205.3
673.2	203.5
673.4	201.9
673.6	200.4
673.8	198.4
674.0	196.7
674.2	194.7
674.4	193.5
674.6	192.7
674.8	191.5
675.0	189.7
675.2	188.2
675.4	186.8
675.6	185.5
675.8	184.5
676.0	183.2
676.2	181.8
676.4	180.3
676.6	178.4
676.8	176.4
677.0	175.3
677.2	174.1
677.4	172.9
677.6	172.1
677.8	170.6
678.0	169.5
678.2	168.7
678.4	167.3
678.6	165.8
678.8	164.4
679.0	163.2
679.2	162.0
679.4	160.9
679.6	159.2
679.8	157.9
680.0	156.5
680.2	155.7
680.4	154.6
680.6	153.8
680.8	152.0
681.0	150.6
681.2	149.6
681.4	149.1
681.6	148.2
681.8	147.2
682.0	145.6
682.2	143.8
682.4	142.8
682.6	141.9
682.8	140.9
683.0	139.8
683.2	138.5
683.4	136.9
683.6	135.4
683.8	134.0
684.0	133.1
684.2	132.2
684.4	131.9
684.6	131.5
684.8	130.6
685.0	129.9
685.2	128.5
685.4	127.2
685.6	126.5
685.8	125.6
686.0	124.4
686.2	123.9
686.4	122.9
686.6	122.2
686.8	121.2
687.0	119.8
687.2	118.5
687.4	117.7
687.6	116.8
687.8	116.2
688.0	115.1
688.2	114.3
688.4	113.2
688.6	112.3
688.8	111.1
689.0	110.0
689.2	109.5
689.4	109.2
689.6	108.5
689.8	107.8
690.0	107.1
690.2	106.1
690.4	105.6
690.6	104.6
690.8	103.2
691.0	102.4
691.2	101.6
691.4	101.1
691.6	100.5
691.8	99.86
692.0	99.36
692.2	98.81
692.4	97.71
692.6	96.92
692.8	95.84
693.0	95.07
693.2	94.68
693.4	93.62
693.6	92.78
693.8	92.10
694.0	91.69
694.2	90.84
694.4	90.25
694.6	89.09
694.8	88.62
695.0	88.22
695.2	87.93
695.4	87.25
695.6	86.59
695.8	85.73
696.0	85.04
696.2	84.66
696.4	83.83
696.6	82.78
696.8	82.26
697.0	82.05
697.2	81.68
697.4	81.35
697.6	80.76
697.8	80.02
698.0	79.61
698.2	79.09
698.4	78.58
698.6	77.95
698.8	77.54
699.0	77.17
699.2	76.52
699.4	75.94
699.6	75.51
699.8	75.01
700.0	74.55
700.2	73.87
700.4	73.01
700.6	72.55
700.8	72.25
701.0	71.89
701.2	71.24
701.4	70.59
701.6	69.80
701.8	69.41
702.0	69.21
702.2	69.09
702.4	68.62
702.6	68.27
702.8	67.63
703.0	67.15
703.2	66.76
703.4	66.49
703.6	65.98
703.8	65.54
704.0	64.94
704.2	64.49
704.4	63.95
704.6	63.28
704.8	62.47
705.0	62.19
705.2	62.11
705.4	62.20
705.6	61.75
705.8	61.08
706.0	60.60
706.2	60.31
706.4	60.10
706.6	59.91
706.8	59.19
707.0	58.62
707.2	58.45
707.4	57.84
707.6	57.44
707.8	56.98
708.0	56.49
708.2	56.03
708.4	55.90
708.6	55.37
708.8	55.25
709.0	54.93
709.2	54.58
709.4	54.11
709.6	53.84
709.8	53.39
710.0	52.95
710.2	52.41
710.4	52.07
710.6	51.90
710.8	51.60
711.0	51.06
711.2	50.48
711.4	50.00
711.6	49.55
711.8	49.37
712.0	49.08
712.2	48.73
712.4	48.41
712.6	48.33
712.8	47.81
713.0	47.55
713.2	47.35
713.4	46.88
713.6	46.42
713.8	46.09
714.0	45.60
714.2	45.19
714.4	44.92
714.6	44.55
714.8	44.39
715.0	43.94
715.2	43.77
715.4	43.37
715.6	43.05
715.8	42.59
716.0	42.26
716.2	41.83
716.4	41.79
716.6	41.70
716.8	41.48
717.0	40.92
717.2	40.60
717.4	40.09
717.6	39.92
717.8	39.87
718.0	39.46
718.2	39.03
718.4	38.83
718.6	38.27
718.8	38.08
719.0	38.05
719.2	37.64
719.4	37.27
719.6	37.02
719.8	36.59
720.0	36.26
720.2	36.08
720.4	35.87
720.6	35.67
720.8	35.49
721.0	35.21
721.2	34.96
721.4	34.69
721.6	34.39
721.8	34.13
722.0	33.80
722.2	33.57
722.4	33.45
722.6	33.31
722.8	32.88
723.0	32.63
723.2	32.05
723.4	31.83
723.6	31.55
723.8	31.51
724.0	31.23
724.2	31.05
724.4	30.82
724.6	30.68
724.8	30.49
725.0	30.31
725.2	29.75
725.4	29.34
725.6	29.11
725.8	28.88
726.0	28.71
726.2	28.54
726.4	28.28
726.6	28.15
726.8	27.92
727.0	27.81
727.2	27.37
727.4	26.98
727.6	26.65
727.8	26.53
728.0	26.35
728.2	26.51
728.4	26.40
728.6	26.15
728.8	25.69
729.0	25.50
729.2	25.31
729.4	25.19
729.6	25.00
729.8	24.86
730.0	24.61
730.2	24.44
730.4	24.26
730.6	23.91
730.8	23.68
731.0	23.61
731.2	23.60
731.4	23.40
731.6	23.13
731.8	22.83
732.0	22.71
732.2	22.67
732.4	22.64
732.6	22.42
732.8	22.15
733.0	21.89
733.2	21.68
733.4	21.54
733.6	21.36
733.8	21.18
734.0	20.81
734.2	20.59
734.4	20.37
734.6	20.22
734.8	20.19
735.0	20.10
735.2	19.93
735.4	19.82
735.6	19.76
735.8	19.50
736.0	19.43
736.2	19.21
736.4	19.10
736.6	18.96
736.8	18.91
737.0	18.73
737.2	18.71
737.4	18.48
737.6	18.27
737.8	18.14
738.0	17.96
738.2	17.91
738.4	17.84
738.6	17.65
738.8	17.53
739.0	17.46
739.2	17.20
739.4	17.09
739.6	16.90
739.8	16.75
740.0	16.71
740.2	16.63
740.4	16.58
740.6	16.49
740.8	16.39
741.0	16.22
741.2	15.97
741.4	15.70
741.6	15.61
741.8	15.49
742.0	15.63
742.2	15.64
742.4	15.35
742.6	15.05
742.8	14.83
743.0	14.63
743.2	14.58
743.4	14.53
743.6	14.38
743.8	14.31
744.0	14.31
744.2	14.29
744.4	14.30
744.6	14.24
744.8	14.02
745.0	13.80
745.2	13.57
745.4	13.52
745.6	13.59
745.8	13.47
746.0	13.17
746.2	12.92
746.4	12.67
746.6	12.56
746.8	12.66
747.0	12.79
747.2	12.77
747.4	12.77
747.6	12.65
747.8	12.52
748.0	12.42
748.2	12.46
748.4	12.40
748.6	12.30
748.8	12.10
749.0	12.02
749.2	11.81
749.4	11.84
749.6	11.88
749.8	11.84
750.0	11.69
750.2	11.57
750.4	11.50
750.6	11.45
750.8	11.41
751.0	11.32
751.2	11.20
751.4	11.07
751.6	11.04
751.8	11.00
752.0	10.87
752.2	10.75
752.4	10.64
752.6	10.54
752.8	10.51
753.0	10.49
753.2	10.40
753.4	10.39
753.6	10.19
753.8	10.03
754.0	9.946
754.2	9.977
754.4	10.08
754.6	10.17
754.8	9.977
755.0	9.867
755.2	9.617
755.4	9.552
755.6	9.546
755.8	9.524
756.0	9.524
756.2	9.569
756.4	9.367
756.6	9.257
756.8	9.213
757.0	9.161
757.2	9.193
757.4	9.171
757.6	8.998
757.8	8.946
758.0	8.837
758.2	8.797
758.4	8.701
758.6	8.587
758.8	8.402
759.0	8.449
759.2	8.433
759.4	8.492
759.6	8.486
759.8	8.417
760.0	8.351
760.2	8.409
760.4	8.286
760.6	8.109
760.8	8.042
761.0	7.886
761.2	7.835
761.4	7.790
761.6	7.629
761.8	7.540
762.0	7.604
762.2	7.577
762.4	7.459
762.6	7.442
762.8	7.375
763.0	7.312
763.2	7.324
763.4	7.304
763.6	7.243
763.8	7.304
764.0	7.197
764.2	7.093
764.4	7.014
764.6	7.020
764.8	7.092
765.0	7.080
765.2	7.034
765.4	6.974
765.6	6.921
765.8	6.906
766.0	6.832
766.2	6.723
766.4	6.708
766.6	6.624
766.8	6.637
767.0	6.665
767.2	6.590
767.4	6.593
767.6	6.594
767.8	6.523
768.0	6.420
768.2	6.342
768.4	6.256
768.6	6.260
768.8	6.267
769.0	6.246
769.2	6.093
769.4	6.027
769.6	6.002
769.8	6.006
770.0	5.981
770.2	6.025
770.4	6.018
770.6	5.971
770.8	5.939
771.0	5.875
771.2	5.799
771.4	5.789
771.6	5.804
771.8	5.695
772.0	5.656
772.2	5.618
772.4	5.606
772.6	5.533
772.8	5.486
773.0	5.433
773.2	5.429
773.4	5.439
773.6	5.434
773.8	5.412
774.0	5.372
774.2	5.317
774.4	5.336
774.6	5.302
774.8	5.347
775.0	5.401
775.2	5.444
775.4	5.385
775.6	5.325
775.8	5.231
776.0	5.253
776.2	5.238
776.4	5.266
776.6	5.242
776.8	5.165
777.0	5.146
777.2	5.191
777.4	5.275
777.6	5.303
777.8	5.238
778.0	5.161
778.2	5.082
778.4	5.061
778.6	5.156
778.8	5.222
779.0	5.339
779.2	5.465
779.4	5.622
779.6	5.696
779.8	5.666
780.0	5.664
780.2	5.680
780.4	5.772
780.6	6.031
780.8	6.318
781.0	6.447
781.2	6.573
781.4	6.650
781.6	6.693
781.8	6.730
782.0	6.948
782.2	7.183
782.4	7.380
782.6	7.737
782.8	8.006
783.0	8.113
783.2	8.451
783.4	8.825
783.6	9.050
783.8	9.397
784.0	9.701
784.2	10.01
784.4	10.40
784.6	10.96
784.8	11.41
785.0	11.94
785.2	12.50
785.4	13.03
785.6	13.52
785.8	14.14
786.0	14.72
786.2	15.30
786.4	16.06
786.6	16.67
786.8	17.25
787.0	17.98
787.2	18.85
787.4	19.72
787.6	20.72
787.8	21.47
788.0	22.16
788.2	22.79
788.4	23.77
788.6	24.83
788.8	26.01
789.0	26.92
789.2	27.89
789.4	28.75
789.6	29.76
789.8	30.86
790.0	31.96
790.2	32.93
790.4	34.20
790.6	35.61
790.8	36.80
791.0	38.17
791.2	39.26
791.4	40.45
791.6	41.64
791.8	42.97
792.0	44.24
792.2	45.63
792.4	46.97
792.6	48.22
792.8	49.69
793.0	51.11
793.2	52.13
793.4	53.15
793.6	54.13
793.8	55.22
794.0	56.73
794.2	58.23
794.4	59.42
794.6	60.85
794.8	62.22
795.0	63.49
795.2	64.83
795.4	66.10
795.6	67.04
795.8	68.33
796.0	69.50
796.2	70.73
796.4	72.18
796.6	73.50
796.8	74.48
797.0	75.55
797.2	76.14
797.4	77.17
797.6	78.03
797.8	79.44
798.0	80.51
798.2	81.69
798.4	82.40
798.6	83.28
798.8	84.04
799.0	85.25
799.2	85.87
799.4	86.85
799.6	87.29
799.8	87.96
800.0	88.59
800.2	89.08
800.4	89.80
800.6	90.62
800.8	91.44
801.0	92.11
801.2	92.19
801.4	92.35
801.6	92.77
801.8	92.64
802.0	93.10
802.2	93.47
802.4	93.89
802.6	94.40
802.8	94.14
803.0	93.47
803.2	93.42
803.4	93.84
803.6	94.54
803.8	94.91
804.0	94.72
804.2	94.31
804.4	93.84
804.6	93.26
804.8	93.13
805.0	92.87
805.2	92.66
805.4	92.38
805.6	92.43
805.8	92.06
806.0	91.78
806.2	91.30
806.4	90.52
806.6	89.65
806.8	89.30
807.0	88.54
807.2	87.52
807.4	86.51
807.6	85.50
807.8	84.63
808.0	84.12
808.2	83.75
808.4	83.32
808.6	82.62
808.8	81.76
809.0	80.27
809.2	79.06
809.4	78.05
809.6	77.40
809.8	76.46
810.0	75.51
810.2	74.23
810.4	72.84
810.6	71.50
810.8	70.71
811.0	69.54
811.2	68.59
811.4	67.73
811.6	66.27
811.8	64.74
812.0	63.63
812.2	62.49
812.4	61.30
812.6	59.92
812.8	59.02
813.0	57.95
813.2	56.76
813.4	55.57
813.6	54.17
813.8	52.31
814.0	50.97
814.2	49.74
814.4	48.64
814.6	47.53
814.8	46.53
815.0	45.42
815.2	44.14
815.4	42.90
815.6	41.84
815.8	40.75
816.0	39.49
816.2	38.25
816.4	37.13
816.6	35.86
816.8	34.78
817.0	33.94
817.2	32.80
817.4	31.60
817.6	30.74
817.8	29.78
818.0	28.78
818.2	28.03
818.4	27.03
818.6	25.94
818.8	24.81
819.0	23.66
819.2	22.56
819.4	21.57
819.6	20.75
819.8	19.93
820.0	19.09
820.2	18.45
820.4	17.77
820.6	16.91
820.8	16.33
821.0	15.59
821.2	15.02
821.4	14.40
821.6	13.72
821.8	13.02
822.0	12.37
822.2	11.75
822.4	11.35
822.6	10.72
822.8	10.27
823.0	9.813
823.2	9.276
823.4	8.842
823.6	8.514
823.8	8.047
824.0	7.766
824.2	7.386
824.4	6.987
824.6	6.590
824.8	6.315
825.0	6.011
825.2	5.791
825.4	5.596
825.6	5.420
825.8	5.141
826.0	4.838
826.2	4.587
826.4	4.333
826.6	4.223
826.8	4.109
827.0	3.974
827.2	3.790
827.4	3.720
827.6	3.574
827.8	3.488
828.0	3.395
828.2	3.337
828.4	3.277
828.6	3.196
828.8	3.093
829.0	3.002
829.2	2.939
829.4	2.921
829.6	2.873
829.8	2.788
830.0	2.790
830.2	2.664
830.4	2.572
830.6	2.529
830.8	2.459
831.0	2.457
831.2	2.532
831.4	2.492
831.6	2.479
831.8	2.498
832.0	2.444
832.2	2.427
832.4	2.395
832.6	2.344
832.8	2.334
833.0	2.359
833.2	2.344
833.4	2.401
833.6	2.357
833.8	2.254
834.0	2.208
834.2	2.184
834.4	2.215
834.6	2.363
834.8	2.412
835.0	2.307
835.2	2.237
835.4	2.180
835.6	2.149
835.8	2.165
836.0	2.192
836.2	2.109
836.4	2.128
836.6	2.143
836.8	2.146
837.0	2.183
837.2	2.222
837.4	2.182
837.6	2.237
837.8	2.190
838.0	2.167
838.2	2.175
838.4	2.174
838.6	2.101
838.8	2.028
839.0	2.011
839.2	2.049
839.4	2.083
839.6	2.150
839.8	2.074
840.0	2.042
840.2	2.042
840.4	2.039
840.6	2.107
840.8	2.138
841.0	2.120
841.2	2.135
841.4	2.057
841.6	1.999
841.8	1.980
842.0	1.904
842.2	1.943
842.4	1.978
842.6	2.023
842.8	2.023
843.0	2.019
843.2	2.002
843.4	1.984
843.6	2.019
843.8	2.041
844.0	2.022
844.2	2.018
844.4	2.005
844.6	1.947
844.8	1.953
845.0	1.914
845.2	1.938
845.4	1.937
845.6	1.915
845.8	1.897
846.0	1.891
846.2	1.903
846.4	1.951
846.6	1.981
846.8	1.975
847.0	1.957
847.2	1.974
847.4	1.991
847.6	1.958
847.8	1.898
848.0	1.861
848.2	1.861
848.4	1.904
848.6	1.952
848.8	1.967
849.0	1.903
849.2	1.888
849.4	1.868
849.6	1.863
849.8	1.865
850.0	1.873

