Sample:	'20211010A(EM)
File name:	r-c-dots-CHO 100S2-.FDS
Run date:	'20:56:30, 03/22/2023
Operator:	Administrator
Comment:	'

Instrument
Model:	F-4700 FL Spectrophotometer
Serial number:	2019-001
ROM Version:	5J24010 00

Instrument parameters
Measurement type:	Wavelength scan
Scan mode:	Emission
Data mode:	Fluorescence
EX WL:	530.0 nm
EM  Start WL:	550.0 nm
EM  End WL:	900.0 nm
Scan speed:	1200 nm/min
Delay:	0.0 s
EX Slit:	10.0 nm
EM Slit:	10.0 nm
PMT Voltage:	640 V
Response:	0.002 s
Corrected spectra:	Off
Shutter control:	On

Processing performed
Savitsky-Golay smoothed
Smoothing order:	3
Number of points:	7
Number of times:	1

Peak integration
Integration method:	Rectangular
Sensitivity:	1
Threshold:	1.000

Peaks
No.	Start(nm)	Apex(nm)	End(nm)	Height(Data)	Valley(nm)	Valley(Data)
1	550.0	626.0	627.0	3008	627.0	2972
2	627.0	629.4	630.6	3013	630.6	2980
3	630.6	631.4	635.4	3004	635.4	2942
4	635.4	636.0	773.4	2954	773.4	37.41
5	773.4	774.2	780.6	40.68	780.6	30.03
6	780.6	781.4	783.0	31.62	783.0	28.39
7	783.0	783.6	787.0	30.30	787.0	25.92
8	787.0	787.6	791.8	27.88	791.8	23.51
9	791.8	792.2	793.8	25.61	793.8	23.79
10	793.8	794.4	796.0	26.03	796.0	23.58
11	796.0	797.6	800.4	25.64	800.4	21.65
12	800.4	801.2	804.4	23.30	804.4	20.57
13	804.4	806.4	807.4	21.94	807.4	18.84
14	807.4	808.2	815.0	21.38	815.0	15.07
15	815.0	816.0	825.6	16.76	825.6	11.37
16	825.6	827.6	829.8	13.40	829.8	10.47
17	829.8	830.6	833.6	12.46	833.6	9.211
18	833.6	834.6	838.0	10.72	838.0	8.482
19	838.0	839.0	844.4	10.79	844.4	7.172
20	844.4	847.2	851.4	8.227	851.4	5.976
21	851.4	852.4	853.8	7.075	853.8	5.486
22	853.8	854.4	857.6	6.902	857.6	5.322
23	857.6	858.2	861.2	6.728	861.2	5.578
24	861.2	865.4	867.0	6.788	867.0	5.322
25	867.0	867.8	869.4	6.414	869.4	5.099
26	869.4	870.4	871.4	6.238	871.4	5.035
27	871.4	872.4	875.0	6.836	875.0	4.511
28	875.0	877.0	877.8	6.213	877.8	5.079
29	877.8	878.6	879.4	6.129	879.4	4.892
30	879.4	881.2	882.4	5.915	882.4	4.722
31	882.4	884.2	885.0	6.106	885.0	4.610
32	885.0	887.0	891.6	6.195	891.6	5.089
33	891.6	892.2	895.8	6.338	895.8	4.872
34	895.8	897.4	898.0	6.095	898.0	4.877

Data points
nm	Data
550.0	847.1
550.2	867.9
550.4	870.2
550.6	863.8
550.8	862.6
551.0	869.0
551.2	884.2
551.4	896.2
551.6	902.4
551.8	903.2
552.0	906.6
552.2	909.3
552.4	914.2
552.6	915.0
552.8	922.2
553.0	924.3
553.2	930.3
553.4	936.0
553.6	940.8
553.8	946.0
554.0	952.8
554.2	952.6
554.4	960.9
554.6	968.4
554.8	980.8
555.0	986.1
555.2	989.0
555.4	992.2
555.6	998.8
555.8	1001
556.0	1009
556.2	1012
556.4	1016
556.6	1021
556.8	1028
557.0	1035
557.2	1039
557.4	1043
557.6	1050
557.8	1054
558.0	1061
558.2	1070
558.4	1070
558.6	1073
558.8	1078
559.0	1086
559.2	1094
559.4	1100
559.6	1107
559.8	1111
560.0	1116
560.2	1126
560.4	1133
560.6	1135
560.8	1137
561.0	1140
561.2	1141
561.4	1148
561.6	1148
561.8	1148
562.0	1155
562.2	1166
562.4	1172
562.6	1185
562.8	1191
563.0	1194
563.2	1206
563.4	1208
563.6	1208
563.8	1213
564.0	1218
564.2	1226
564.4	1234
564.6	1235
564.8	1234
565.0	1238
565.2	1242
565.4	1261
565.6	1272
565.8	1281
566.0	1286
566.2	1287
566.4	1283
566.6	1291
566.8	1297
567.0	1306
567.2	1315
567.4	1323
567.6	1324
567.8	1328
568.0	1333
568.2	1343
568.4	1349
568.6	1357
568.8	1359
569.0	1354
569.2	1354
569.4	1371
569.6	1386
569.8	1395
570.0	1406
570.2	1399
570.4	1399
570.6	1409
570.8	1415
571.0	1420
571.2	1438
571.4	1449
571.6	1463
571.8	1469
572.0	1465
572.2	1461
572.4	1468
572.6	1478
572.8	1489
573.0	1494
573.2	1500
573.4	1501
573.6	1510
573.8	1522
574.0	1530
574.2	1536
574.4	1541
574.6	1542
574.8	1549
575.0	1556
575.2	1563
575.4	1574
575.6	1582
575.8	1591
576.0	1602
576.2	1603
576.4	1606
576.6	1608
576.8	1614
577.0	1623
577.2	1639
577.4	1653
577.6	1667
577.8	1666
578.0	1669
578.2	1664
578.4	1669
578.6	1680
578.8	1686
579.0	1690
579.2	1703
579.4	1701
579.6	1712
579.8	1729
580.0	1732
580.2	1745
580.4	1751
580.6	1745
580.8	1750
581.0	1762
581.2	1774
581.4	1783
581.6	1784
581.8	1786
582.0	1788
582.2	1800
582.4	1809
582.6	1819
582.8	1826
583.0	1833
583.2	1837
583.4	1847
583.6	1857
583.8	1871
584.0	1878
584.2	1886
584.4	1886
584.6	1889
584.8	1894
585.0	1900
585.2	1914
585.4	1926
585.6	1933
585.8	1941
586.0	1943
586.2	1953
586.4	1961
586.6	1964
586.8	1971
587.0	1985
587.2	1993
587.4	2001
587.6	1999
587.8	2010
588.0	2012
588.2	2017
588.4	2025
588.6	2033
588.8	2038
589.0	2059
589.2	2066
589.4	2076
589.6	2092
589.8	2102
590.0	2101
590.2	2103
590.4	2102
590.6	2114
590.8	2118
591.0	2124
591.2	2129
591.4	2138
591.6	2145
591.8	2158
592.0	2165
592.2	2168
592.4	2172
592.6	2178
592.8	2182
593.0	2192
593.2	2202
593.4	2212
593.6	2221
593.8	2226
594.0	2241
594.2	2251
594.4	2255
594.6	2259
594.8	2265
595.0	2261
595.2	2266
595.4	2276
595.6	2281
595.8	2282
596.0	2294
596.2	2302
596.4	2300
596.6	2316
596.8	2326
597.0	2331
597.2	2344
597.4	2355
597.6	2351
597.8	2359
598.0	2360
598.2	2368
598.4	2373
598.6	2380
598.8	2385
599.0	2392
599.2	2405
599.4	2418
599.6	2418
599.8	2429
600.0	2430
600.2	2435
600.4	2446
600.6	2451
600.8	2451
601.0	2461
601.2	2476
601.4	2487
601.6	2498
601.8	2508
602.0	2508
602.2	2508
602.4	2516
602.6	2509
602.8	2512
603.0	2508
603.2	2509
603.4	2522
603.6	2531
603.8	2538
604.0	2550
604.2	2551
604.4	2558
604.6	2565
604.8	2576
605.0	2584
605.2	2587
605.4	2586
605.6	2582
605.8	2582
606.0	2598
606.2	2614
606.4	2624
606.6	2635
606.8	2636
607.0	2645
607.2	2648
607.4	2651
607.6	2652
607.8	2654
608.0	2654
608.2	2663
608.4	2676
608.6	2688
608.8	2697
609.0	2702
609.2	2706
609.4	2713
609.6	2710
609.8	2705
610.0	2706
610.2	2703
610.4	2711
610.6	2724
610.8	2727
611.0	2744
611.2	2760
611.4	2762
611.6	2761
611.8	2760
612.0	2751
612.2	2755
612.4	2764
612.6	2781
612.8	2791
613.0	2802
613.2	2802
613.4	2796
613.6	2791
613.8	2797
614.0	2792
614.2	2797
614.4	2809
614.6	2814
614.8	2818
615.0	2829
615.2	2826
615.4	2828
615.6	2842
615.8	2845
616.0	2848
616.2	2856
616.4	2868
616.6	2868
616.8	2877
617.0	2874
617.2	2872
617.4	2876
617.6	2879
617.8	2879
618.0	2892
618.2	2900
618.4	2911
618.6	2912
618.8	2907
619.0	2904
619.2	2912
619.4	2912
619.6	2923
619.8	2916
620.0	2923
620.2	2935
620.4	2952
620.6	2958
620.8	2966
621.0	2951
621.2	2942
621.4	2946
621.6	2950
621.8	2956
622.0	2967
622.2	2952
622.4	2948
622.6	2957
622.8	2955
623.0	2962
623.2	2975
623.4	2973
623.6	2978
623.8	2978
624.0	2974
624.2	2970
624.4	2971
624.6	2982
624.8	2983
625.0	2979
625.2	2980
625.4	2979
625.6	2981
625.8	2999
626.0	3008
626.2	3007
626.4	2997
626.6	2982
626.8	2973
627.0	2972
627.2	2982
627.4	2992
627.6	2998
627.8	2999
628.0	3000
628.2	3003
628.4	3005
628.6	2992
628.8	3002
629.0	3009
629.2	3009
629.4	3013
629.6	3008
629.8	2996
630.0	3002
630.2	3001
630.4	2991
630.6	2980
630.8	2983
631.0	2991
631.2	2998
631.4	3004
631.6	2996
631.8	2987
632.0	2989
632.2	2994
632.4	2996
632.6	2998
632.8	2987
633.0	2978
633.2	2979
633.4	2981
633.6	2975
633.8	2974
634.0	2960
634.2	2964
634.4	2971
634.6	2973
634.8	2972
635.0	2965
635.2	2945
635.4	2942
635.6	2948
635.8	2951
636.0	2954
636.2	2954
636.4	2951
636.6	2944
636.8	2950
637.0	2943
637.2	2933
637.4	2926
637.6	2920
637.8	2920
638.0	2915
638.2	2906
638.4	2899
638.6	2894
638.8	2895
639.0	2902
639.2	2891
639.4	2883
639.6	2876
639.8	2875
640.0	2879
640.2	2871
640.4	2863
640.6	2858
640.8	2862
641.0	2866
641.2	2864
641.4	2843
641.6	2830
641.8	2813
642.0	2820
642.2	2816
642.4	2807
642.6	2796
642.8	2794
643.0	2781
643.2	2786
643.4	2782
643.6	2775
643.8	2767
644.0	2761
644.2	2745
644.4	2742
644.6	2740
644.8	2742
645.0	2740
645.2	2731
645.4	2713
645.6	2700
645.8	2687
646.0	2680
646.2	2687
646.4	2682
646.6	2677
646.8	2668
647.0	2652
647.2	2640
647.4	2638
647.6	2629
647.8	2624
648.0	2611
648.2	2594
648.4	2582
648.6	2574
648.8	2570
649.0	2575
649.2	2574
649.4	2568
649.6	2556
649.8	2543
650.0	2529
650.2	2528
650.4	2521
650.6	2511
650.8	2496
651.0	2481
651.2	2468
651.4	2467
651.6	2462
651.8	2451
652.0	2437
652.2	2426
652.4	2418
652.6	2414
652.8	2408
653.0	2402
653.2	2393
653.4	2383
653.6	2373
653.8	2365
654.0	2345
654.2	2337
654.4	2332
654.6	2325
654.8	2316
655.0	2307
655.2	2288
655.4	2281
655.6	2278
655.8	2267
656.0	2253
656.2	2241
656.4	2233
656.6	2225
656.8	2222
657.0	2211
657.2	2202
657.4	2193
657.6	2176
657.8	2164
658.0	2163
658.2	2147
658.4	2140
658.6	2132
658.8	2116
659.0	2105
659.2	2088
659.4	2070
659.6	2067
659.8	2065
660.0	2057
660.2	2050
660.4	2035
660.6	2029
660.8	2015
661.0	1998
661.2	1980
661.4	1971
661.6	1969
661.8	1969
662.0	1957
662.2	1947
662.4	1940
662.6	1927
662.8	1915
663.0	1901
663.2	1890
663.4	1878
663.6	1874
663.8	1867
664.0	1857
664.2	1844
664.4	1834
664.6	1821
664.8	1805
665.0	1789
665.2	1776
665.4	1765
665.6	1761
665.8	1758
666.0	1751
666.2	1744
666.4	1738
666.6	1731
666.8	1721
667.0	1704
667.2	1696
667.4	1681
667.6	1671
667.8	1660
668.0	1651
668.2	1641
668.4	1641
668.6	1627
668.8	1615
669.0	1599
669.2	1589
669.4	1580
669.6	1573
669.8	1568
670.0	1561
670.2	1552
670.4	1548
670.6	1536
670.8	1523
671.0	1520
671.2	1511
671.4	1499
671.6	1489
671.8	1476
672.0	1459
672.2	1448
672.4	1436
672.6	1427
672.8	1417
673.0	1413
673.2	1403
673.4	1393
673.6	1388
673.8	1381
674.0	1374
674.2	1361
674.4	1348
674.6	1337
674.8	1327
675.0	1320
675.2	1319
675.4	1308
675.6	1305
675.8	1295
676.0	1281
676.2	1276
676.4	1274
676.6	1263
676.8	1259
677.0	1244
677.2	1232
677.4	1225
677.6	1217
677.8	1210
678.0	1207
678.2	1197
678.4	1190
678.6	1178
678.8	1169
679.0	1161
679.2	1153
679.4	1148
679.6	1140
679.8	1131
680.0	1128
680.2	1121
680.4	1112
680.6	1106
680.8	1098
681.0	1088
681.2	1085
681.4	1077
681.6	1071
681.8	1063
682.0	1058
682.2	1052
682.4	1046
682.6	1035
682.8	1023
683.0	1011
683.2	1004
683.4	999.4
683.6	999.0
683.8	990.7
684.0	983.3
684.2	975.3
684.4	965.2
684.6	957.1
684.8	952.4
685.0	942.8
685.2	937.0
685.4	931.0
685.6	926.2
685.8	923.5
686.0	919.4
686.2	908.5
686.4	899.6
686.6	894.2
686.8	891.2
687.0	885.6
687.2	885.0
687.4	880.1
687.6	880.8
687.8	874.6
688.0	865.9
688.2	855.5
688.4	847.1
688.6	840.2
688.8	838.7
689.0	832.3
689.2	824.3
689.4	820.3
689.6	816.3
689.8	807.5
690.0	803.4
690.2	797.9
690.4	793.9
690.6	792.5
690.8	792.3
691.0	788.9
691.2	782.9
691.4	774.8
691.6	766.8
691.8	755.1
692.0	744.3
692.2	738.0
692.4	738.1
692.6	737.5
692.8	737.0
693.0	730.5
693.2	723.7
693.4	715.1
693.6	709.1
693.8	699.4
694.0	694.9
694.2	689.1
694.4	687.2
694.6	688.3
694.8	686.7
695.0	684.4
695.2	680.0
695.4	675.4
695.6	673.2
695.8	670.4
696.0	666.5
696.2	660.6
696.4	653.3
696.6	646.9
696.8	645.1
697.0	637.1
697.2	634.4
697.4	636.0
697.6	635.2
697.8	633.4
698.0	627.9
698.2	616.2
698.4	610.1
698.6	610.5
698.8	608.8
699.0	607.9
699.2	603.2
699.4	597.4
699.6	592.5
699.8	586.3
700.0	582.0
700.2	581.1
700.4	577.9
700.6	576.0
700.8	575.6
701.0	572.5
701.2	567.5
701.4	566.0
701.6	560.2
701.8	550.7
702.0	548.0
702.2	547.7
702.4	543.7
702.6	539.1
702.8	538.5
703.0	534.9
703.2	533.8
703.4	533.5
703.6	531.1
703.8	522.9
704.0	520.1
704.2	519.5
704.4	512.8
704.6	509.5
704.8	506.9
705.0	501.4
705.2	500.2
705.4	497.3
705.6	492.6
705.8	489.6
706.0	488.4
706.2	485.0
706.4	483.4
706.6	478.9
706.8	476.9
707.0	473.3
707.2	474.7
707.4	471.9
707.6	470.3
707.8	467.4
708.0	462.9
708.2	461.0
708.4	459.4
708.6	453.7
708.8	451.6
709.0	448.2
709.2	443.7
709.4	443.9
709.6	441.8
709.8	438.3
710.0	436.0
710.2	431.3
710.4	424.5
710.6	420.8
710.8	417.4
711.0	416.8
711.2	418.1
711.4	417.7
711.6	415.6
711.8	413.0
712.0	407.1
712.2	399.3
712.4	394.9
712.6	391.5
712.8	391.2
713.0	391.6
713.2	389.1
713.4	384.4
713.6	381.8
713.8	381.0
714.0	380.3
714.2	376.2
714.4	375.6
714.6	372.5
714.8	371.9
715.0	371.3
715.2	368.7
715.4	362.4
715.6	359.7
715.8	354.1
716.0	351.3
716.2	348.7
716.4	345.8
716.6	340.9
716.8	337.9
717.0	334.7
717.2	334.6
717.4	337.0
717.6	337.2
717.8	336.7
718.0	335.7
718.2	331.7
718.4	330.4
718.6	327.1
718.8	320.3
719.0	314.3
719.2	312.3
719.4	313.3
719.6	312.9
719.8	312.1
720.0	309.5
720.2	305.1
720.4	302.4
720.6	300.5
720.8	295.6
721.0	290.2
721.2	288.1
721.4	287.4
721.6	287.1
721.8	285.4
722.0	285.4
722.2	280.9
722.4	278.3
722.6	278.8
722.8	278.1
723.0	274.1
723.2	272.8
723.4	269.3
723.6	264.6
723.8	264.6
724.0	264.1
724.2	262.6
724.4	261.8
724.6	258.5
724.8	253.8
725.0	252.6
725.2	252.1
725.4	254.1
725.6	252.2
725.8	248.8
726.0	244.6
726.2	241.4
726.4	237.1
726.6	235.5
726.8	233.7
727.0	231.2
727.2	230.2
727.4	231.1
727.6	232.9
727.8	230.3
728.0	229.8
728.2	226.2
728.4	221.3
728.6	218.5
728.8	218.0
729.0	215.5
729.2	215.9
729.4	216.0
729.6	214.4
729.8	213.1
730.0	210.9
730.2	208.9
730.4	206.0
730.6	205.4
730.8	202.1
731.0	199.7
731.2	198.3
731.4	199.1
731.6	196.7
731.8	197.0
732.0	192.2
732.2	190.4
732.4	188.8
732.6	188.9
732.8	186.9
733.0	185.7
733.2	181.1
733.4	178.2
733.6	174.7
733.8	173.2
734.0	175.2
734.2	176.3
734.4	175.7
734.6	175.0
734.8	173.4
735.0	172.3
735.2	170.9
735.4	169.0
735.6	165.1
735.8	164.5
736.0	162.7
736.2	163.5
736.4	163.5
736.6	163.8
736.8	159.5
737.0	157.8
737.2	154.8
737.4	156.1
737.6	156.9
737.8	156.4
738.0	152.9
738.2	150.9
738.4	148.5
738.6	146.5
738.8	144.9
739.0	143.1
739.2	140.9
739.4	139.9
739.6	139.1
739.8	136.2
740.0	135.7
740.2	134.7
740.4	133.7
740.6	133.9
740.8	134.3
741.0	132.2
741.2	133.4
741.4	131.7
741.6	131.6
741.8	130.3
742.0	128.5
742.2	126.7
742.4	128.5
742.6	126.3
742.8	125.6
743.0	122.8
743.2	121.6
743.4	121.6
743.6	122.0
743.8	122.4
744.0	120.9
744.2	118.1
744.4	118.1
744.6	116.5
744.8	115.3
745.0	116.5
745.2	114.9
745.4	112.7
745.6	113.0
745.8	111.3
746.0	110.2
746.2	109.0
746.4	107.0
746.6	104.5
746.8	103.2
747.0	103.4
747.2	104.5
747.4	105.1
747.6	105.7
747.8	104.0
748.0	101.7
748.2	102.3
748.4	104.0
748.6	104.7
748.8	104.5
749.0	102.0
749.2	98.88
749.4	97.56
749.6	98.12
749.8	96.58
750.0	95.09
750.2	93.03
750.4	91.80
750.6	91.94
750.8	93.08
751.0	91.02
751.2	88.86
751.4	87.13
751.6	86.41
751.8	86.19
752.0	87.49
752.2	87.57
752.4	87.11
752.6	87.15
752.8	84.89
753.0	82.75
753.2	82.77
753.4	84.16
753.6	84.85
753.8	85.15
754.0	83.58
754.2	82.16
754.4	81.33
754.6	81.32
754.8	81.74
755.0	81.11
755.2	80.34
755.4	78.87
755.6	77.33
755.8	77.32
756.0	76.72
756.2	76.61
756.4	75.47
756.6	73.55
756.8	72.07
757.0	72.20
757.2	70.93
757.4	71.50
757.6	70.24
757.8	70.20
758.0	69.23
758.2	70.29
758.4	69.86
758.6	70.29
758.8	69.56
759.0	70.48
759.2	67.55
759.4	66.43
759.6	64.22
759.8	64.22
760.0	63.92
760.2	64.80
760.4	63.44
760.6	62.05
760.8	62.03
761.0	61.70
761.2	61.76
761.4	61.67
761.6	62.14
761.8	60.54
762.0	60.88
762.2	59.78
762.4	59.01
762.6	58.20
762.8	58.48
763.0	57.04
763.2	55.79
763.4	55.30
763.6	55.68
763.8	56.78
764.0	57.34
764.2	55.88
764.4	53.88
764.6	53.51
764.8	54.00
765.0	53.70
765.2	53.78
765.4	51.56
765.6	50.95
765.8	51.28
766.0	51.97
766.2	51.98
766.4	51.59
766.6	49.89
766.8	49.20
767.0	48.48
767.2	49.59
767.4	50.18
767.6	49.88
767.8	48.21
768.0	47.12
768.2	47.04
768.4	47.21
768.6	47.02
768.8	47.09
769.0	45.64
769.2	44.97
769.4	44.97
769.6	44.11
769.8	43.84
770.0	44.10
770.2	45.20
770.4	44.70
770.6	44.20
770.8	44.58
771.0	43.75
771.2	43.25
771.4	43.54
771.6	41.89
771.8	40.98
772.0	41.56
772.2	40.38
772.4	40.11
772.6	40.71
772.8	39.67
773.0	38.83
773.2	38.16
773.4	37.41
773.6	38.50
773.8	39.71
774.0	40.27
774.2	40.68
774.4	40.05
774.6	38.44
774.8	38.10
775.0	36.79
775.2	35.81
775.4	36.18
775.6	36.47
775.8	36.28
776.0	36.56
776.2	36.48
776.4	35.75
776.6	36.11
776.8	35.71
777.0	35.84
777.2	35.30
777.4	34.61
777.6	33.84
777.8	34.02
778.0	33.30
778.2	33.24
778.4	33.14
778.6	32.69
778.8	32.43
779.0	32.94
779.2	32.63
779.4	32.56
779.6	32.81
779.8	32.06
780.0	31.45
780.2	31.26
780.4	30.23
780.6	30.03
780.8	30.43
781.0	30.62
781.2	31.62
781.4	31.62
781.6	31.54
781.8	31.00
782.0	31.17
782.2	30.94
782.4	30.44
782.6	29.30
782.8	28.89
783.0	28.39
783.2	29.65
783.4	29.99
783.6	30.30
783.8	30.18
784.0	29.64
784.2	29.49
784.4	29.69
784.6	28.94
784.8	29.17
785.0	29.05
785.2	28.76
785.4	29.16
785.6	29.10
785.8	28.48
786.0	28.66
786.2	28.74
786.4	27.72
786.6	27.15
786.8	26.08
787.0	25.92
787.2	26.30
787.4	27.71
787.6	27.88
787.8	27.75
788.0	26.72
788.2	26.38
788.4	26.22
788.6	26.09
788.8	25.87
789.0	25.76
789.2	25.75
789.4	25.87
789.6	25.92
789.8	25.99
790.0	25.86
790.2	26.07
790.4	26.67
790.6	26.46
790.8	26.14
791.0	25.72
791.2	24.41
791.4	23.73
791.6	23.53
791.8	23.51
792.0	24.61
792.2	25.61
792.4	25.07
792.6	24.53
792.8	24.71
793.0	24.37
793.2	24.48
793.4	24.55
793.6	23.99
793.8	23.79
794.0	25.34
794.2	25.92
794.4	26.03
794.6	25.20
794.8	24.52
795.0	23.95
795.2	24.19
795.4	24.61
795.6	24.82
795.8	24.45
796.0	23.58
796.2	23.59
796.4	23.93
796.6	24.60
796.8	24.35
797.0	24.75
797.2	24.63
797.4	25.47
797.6	25.64
797.8	25.47
798.0	24.42
798.2	23.78
798.4	23.95
798.6	23.92
798.8	23.20
799.0	22.74
799.2	22.62
799.4	22.35
799.6	23.32
799.8	23.16
800.0	22.89
800.2	22.05
800.4	21.65
800.6	22.17
800.8	22.64
801.0	22.84
801.2	23.30
801.4	22.63
801.6	22.34
801.8	22.62
802.0	22.66
802.2	23.16
802.4	22.90
802.6	22.16
802.8	21.19
803.0	20.74
803.2	21.02
803.4	22.47
803.6	22.70
803.8	22.81
804.0	21.16
804.2	20.90
804.4	20.57
804.6	20.89
804.8	21.07
805.0	21.25
805.2	20.81
805.4	21.32
805.6	21.26
805.8	20.89
806.0	21.13
806.2	21.73
806.4	21.94
806.6	21.61
806.8	20.88
807.0	19.76
807.2	19.25
807.4	18.84
807.6	19.21
807.8	20.13
808.0	21.36
808.2	21.38
808.4	20.86
808.6	19.32
808.8	18.83
809.0	19.21
809.2	19.76
809.4	19.47
809.6	19.92
809.8	19.26
810.0	18.43
810.2	17.89
810.4	17.76
810.6	17.72
810.8	18.85
811.0	18.60
811.2	17.62
811.4	17.10
811.6	17.03
811.8	17.30
812.0	17.72
812.2	17.72
812.4	17.56
812.6	17.77
812.8	17.39
813.0	16.95
813.2	16.24
813.4	15.77
813.6	15.87
813.8	15.88
814.0	16.40
814.2	16.61
814.4	16.67
814.6	15.83
814.8	15.55
815.0	15.07
815.2	15.17
815.4	15.72
815.6	16.09
815.8	16.17
816.0	16.76
816.2	16.63
816.4	16.26
816.6	15.64
816.8	14.96
817.0	15.22
817.2	16.04
817.4	16.32
817.6	16.16
817.8	14.91
818.0	14.63
818.2	14.72
818.4	15.10
818.6	15.15
818.8	14.75
819.0	14.12
819.2	13.92
819.4	14.24
819.6	14.19
819.8	14.65
820.0	14.66
820.2	14.61
820.4	13.91
820.6	13.96
820.8	13.35
821.0	13.78
821.2	13.80
821.4	13.64
821.6	13.38
821.8	13.50
822.0	13.46
822.2	13.46
822.4	13.64
822.6	13.36
822.8	13.61
823.0	14.05
823.2	14.29
823.4	13.88
823.6	13.20
823.8	12.61
824.0	12.76
824.2	12.54
824.4	12.35
824.6	12.13
824.8	11.85
825.0	12.22
825.2	12.47
825.4	11.80
825.6	11.37
825.8	11.58
826.0	11.57
826.2	12.21
826.4	12.72
826.6	12.43
826.8	12.22
827.0	12.46
827.2	12.70
827.4	13.01
827.6	13.40
827.8	13.02
828.0	12.63
828.2	12.39
828.4	12.54
828.6	11.93
828.8	12.18
829.0	12.14
829.2	11.86
829.4	11.42
829.6	10.76
829.8	10.47
830.0	11.27
830.2	11.84
830.4	12.31
830.6	12.46
830.8	11.53
831.0	10.74
831.2	10.15
831.4	10.15
831.6	10.15
831.8	10.79
832.0	10.88
832.2	10.72
832.4	10.37
832.6	10.35
832.8	9.523
833.0	9.306
833.2	9.331
833.4	9.390
833.6	9.211
833.8	9.263
834.0	9.462
834.2	9.650
834.4	10.26
834.6	10.72
834.8	10.63
835.0	10.19
835.2	9.637
835.4	9.310
835.6	9.798
835.8	9.916
836.0	10.22
836.2	10.04
836.4	9.802
836.6	9.449
836.8	9.636
837.0	9.547
837.2	10.24
837.4	10.01
837.6	9.572
837.8	8.822
838.0	8.482
838.2	8.500
838.4	9.230
838.6	10.01
838.8	10.54
839.0	10.79
839.2	10.13
839.4	9.334
839.6	8.466
839.8	8.386
840.0	8.193
840.2	8.678
840.4	8.654
840.6	8.784
840.8	8.378
841.0	8.694
841.2	8.755
841.4	9.174
841.6	9.142
841.8	9.108
842.0	8.124
842.2	7.846
842.4	7.916
842.6	7.582
842.8	7.764
843.0	8.080
843.2	8.017
843.4	8.148
843.6	8.482
843.8	7.920
844.0	7.647
844.2	7.334
844.4	7.172
844.6	7.424
844.8	7.800
845.0	7.678
845.2	7.793
845.4	7.956
845.6	7.536
845.8	7.465
846.0	7.597
846.2	7.215
846.4	7.229
846.6	7.654
846.8	7.549
847.0	8.048
847.2	8.227
847.4	7.583
847.6	7.227
847.8	7.496
848.0	7.486
848.2	7.812
848.4	7.848
848.6	6.851
848.8	6.802
849.0	6.807
849.2	6.765
849.4	6.881
849.6	7.044
849.8	6.868
850.0	7.345
850.2	7.023
850.4	6.856
850.6	6.614
850.8	6.280
851.0	6.537
851.2	6.345
851.4	5.976
851.6	6.071
851.8	6.425
852.0	6.330
852.2	6.825
852.4	7.075
852.6	7.024
852.8	6.744
853.0	6.949
853.2	6.479
853.4	6.267
853.6	5.995
853.8	5.486
854.0	5.911
854.2	6.571
854.4	6.902
854.6	6.668
854.8	6.406
855.0	5.999
855.2	6.202
855.4	6.406
855.6	6.566
855.8	6.180
856.0	6.252
856.2	6.094
856.4	6.005
856.6	6.241
856.8	6.507
857.0	6.170
857.2	5.613
857.4	5.393
857.6	5.322
857.8	5.462
858.0	6.088
858.2	6.728
858.4	6.611
858.6	6.461
858.8	6.233
859.0	6.303
859.2	6.447
859.4	6.659
859.6	6.211
859.8	6.064
860.0	6.242
860.2	6.583
860.4	6.552
860.6	6.495
860.8	6.076
861.0	5.725
861.2	5.578
861.4	5.869
861.6	5.729
861.8	5.877
862.0	6.097
862.2	6.150
862.4	6.077
862.6	5.794
862.8	5.691
863.0	5.642
863.2	5.635
863.4	5.855
863.6	5.927
863.8	6.082
864.0	6.563
864.2	6.677
864.4	6.295
864.6	5.974
864.8	5.793
865.0	6.230
865.2	6.480
865.4	6.788
865.6	6.522
865.8	6.388
866.0	6.175
866.2	6.088
866.4	6.138
866.6	6.143
866.8	5.572
867.0	5.322
867.2	5.509
867.4	5.410
867.6	6.076
867.8	6.414
868.0	6.262
868.2	5.836
868.4	6.057
868.6	5.724
868.8	5.749
869.0	5.591
869.2	5.523
869.4	5.099
869.6	5.550
869.8	6.088
870.0	6.028
870.2	6.120
870.4	6.238
870.6	6.048
870.8	5.847
871.0	5.767
871.2	5.480
871.4	5.035
871.6	5.110
871.8	5.736
872.0	5.999
872.2	6.282
872.4	6.836
872.6	6.155
872.8	5.627
873.0	5.637
873.2	5.394
873.4	5.479
873.6	5.941
873.8	5.697
874.0	5.727
874.2	5.816
874.4	5.484
874.6	5.217
874.8	4.835
875.0	4.511
875.2	4.822
875.4	5.012
875.6	5.371
875.8	5.655
876.0	5.837
876.2	5.738
876.4	6.147
876.6	5.953
876.8	6.041
877.0	6.213
877.2	5.932
877.4	5.458
877.6	5.408
877.8	5.079
878.0	5.390
878.2	5.991
878.4	6.043
878.6	6.129
878.8	5.845
879.0	5.588
879.2	5.312
879.4	4.892
879.6	5.051
879.8	5.566
880.0	5.680
880.2	5.627
880.4	5.240
880.6	5.101
880.8	5.405
881.0	5.727
881.2	5.915
881.4	5.667
881.6	5.643
881.8	5.411
882.0	5.020
882.2	4.812
882.4	4.722
882.6	5.157
882.8	5.350
883.0	5.621
883.2	5.600
883.4	5.514
883.6	5.241
883.8	5.668
884.0	5.693
884.2	6.106
884.4	5.762
884.6	5.158
884.8	4.750
885.0	4.610
885.2	4.748
885.4	5.214
885.6	5.431
885.8	5.514
886.0	5.486
886.2	5.232
886.4	5.285
886.6	5.653
886.8	6.033
887.0	6.195
887.2	6.005
887.4	5.516
887.6	5.257
887.8	5.167
888.0	5.347
888.2	5.612
888.4	5.636
888.6	5.591
888.8	5.634
889.0	5.857
889.2	5.961
889.4	6.061
889.6	6.072
889.8	6.051
890.0	6.138
890.2	6.126
890.4	5.608
890.6	5.254
890.8	5.272
891.0	5.102
891.2	5.247
891.4	5.165
891.6	5.089
891.8	5.575
892.0	6.149
892.2	6.338
892.4	6.253
892.6	5.797
892.8	5.402
893.0	5.313
893.2	5.402
893.4	5.291
893.6	5.422
893.8	5.219
894.0	5.426
894.2	5.754
894.4	5.764
894.6	5.627
894.8	5.489
895.0	5.149
895.2	5.097
895.4	5.122
895.6	4.961
895.8	4.872
896.0	5.118
896.2	5.701
896.4	5.831
896.6	5.513
896.8	5.132
897.0	5.092
897.2	5.536
897.4	6.095
897.6	6.016
897.8	5.391
898.0	4.877
898.2	5.017
898.4	5.264
898.6	5.552
898.8	5.701
899.0	5.580
899.2	5.317
899.4	5.371
899.6	5.380
899.8	5.640
900.0	6.291

