Sample:	'20211010A(EM)
File name:	r-c-dots-CHO 300S2-.FDS
Run date:	'16:24:26, 03/22/2023
Operator:	Administrator
Comment:	'

Instrument
Model:	F-4700 FL Spectrophotometer
Serial number:	2019-001
ROM Version:	5J24010 00

Instrument parameters
Measurement type:	Wavelength scan
Scan mode:	Emission
Data mode:	Fluorescence
EX WL:	530.0 nm
EM  Start WL:	550.0 nm
EM  End WL:	900.0 nm
Scan speed:	1200 nm/min
Delay:	0.0 s
EX Slit:	10.0 nm
EM Slit:	10.0 nm
PMT Voltage:	640 V
Response:	0.002 s
Corrected spectra:	Off
Shutter control:	On

Processing performed
Savitsky-Golay smoothed
Smoothing order:	3
Number of points:	7
Number of times:	1

Peak integration
Integration method:	Rectangular
Sensitivity:	1
Threshold:	1.000

Peaks
No.	Start(nm)	Apex(nm)	End(nm)	Height(Data)	Valley(nm)	Valley(Data)
1	550.0	625.8	626.0	4530	626.0	4511
2	626.0	629.0	629.8	4545	629.8	4513
3	629.8	630.8	747.6	4548	747.6	144.2
4	747.6	748.4	783.0	150.8	783.0	38.49
5	783.0	783.6	785.6	41.71	785.6	37.27
6	785.6	786.4	788.2	39.34	788.2	34.84
7	788.2	788.8	793.6	36.78	793.6	30.33
8	793.6	795.0	795.4	31.69	795.4	29.36
9	795.4	797.8	798.4	30.79	798.4	28.31
10	798.4	799.6	803.4	30.35	803.4	25.73
11	803.4	805.4	807.2	27.39	807.2	23.67
12	807.2	807.6	809.8	25.40	809.8	21.93
13	809.8	810.6	816.2	23.75	816.2	17.82
14	816.2	817.0	819.8	19.29	819.8	15.98
15	819.8	820.4	825.8	18.01	825.8	13.25
16	825.8	827.6	829.2	14.76	829.2	12.46
17	829.2	830.0	839.4	13.53	839.4	8.600
18	839.4	840.2	842.4	10.06	842.4	7.715
19	842.4	843.2	844.4	9.577	844.4	6.641
20	844.4	845.4	846.2	7.989	846.2	6.664
21	846.2	847.0	854.2	8.074	854.2	5.397
22	854.2	854.8	857.2	6.756	857.2	5.097
23	857.2	858.8	863.4	6.630	863.4	4.669
24	863.4	865.0	866.0	5.811	866.0	4.657
25	866.0	866.8	869.0	5.780	869.0	4.381
26	869.0	872.2	875.4	5.931	875.4	4.076
27	875.4	876.6	879.6	5.703	879.6	4.356
28	879.6	881.2	887.6	5.499	887.6	4.187
29	887.6	891.8	896.2	5.473	896.2	4.318
30	896.2	897.0	898.6	5.606	898.6	3.974

Data points
nm	Data
550.0	1157
550.2	1170
550.4	1174
550.6	1174
550.8	1177
551.0	1191
551.2	1204
551.4	1213
551.6	1218
551.8	1219
552.0	1226
552.2	1237
552.4	1242
552.6	1248
552.8	1257
553.0	1268
553.2	1276
553.4	1283
553.6	1282
553.8	1285
554.0	1293
554.2	1302
554.4	1311
554.6	1325
554.8	1335
555.0	1342
555.2	1348
555.4	1352
555.6	1360
555.8	1370
556.0	1378
556.2	1390
556.4	1393
556.6	1398
556.8	1407
557.0	1422
557.2	1429
557.4	1434
557.6	1431
557.8	1438
558.0	1446
558.2	1466
558.4	1482
558.6	1493
558.8	1497
559.0	1503
559.2	1502
559.4	1505
559.6	1512
559.8	1526
560.0	1547
560.2	1555
560.4	1563
560.6	1567
560.8	1573
561.0	1586
561.2	1604
561.4	1613
561.6	1622
561.8	1626
562.0	1641
562.2	1658
562.4	1672
562.6	1682
562.8	1687
563.0	1682
563.2	1688
563.4	1694
563.6	1706
563.8	1719
564.0	1729
564.2	1735
564.4	1739
564.6	1743
564.8	1756
565.0	1775
565.2	1787
565.4	1801
565.6	1804
565.8	1810
566.0	1814
566.2	1824
566.4	1830
566.6	1848
566.8	1865
567.0	1881
567.2	1888
567.4	1899
567.6	1907
567.8	1920
568.0	1934
568.2	1948
568.4	1966
568.6	1983
568.8	1990
569.0	1992
569.2	2005
569.4	2011
569.6	2020
569.8	2025
570.0	2037
570.2	2046
570.4	2058
570.6	2062
570.8	2061
571.0	2069
571.2	2090
571.4	2107
571.6	2126
571.8	2143
572.0	2158
572.2	2177
572.4	2184
572.6	2192
572.8	2197
573.0	2204
573.2	2225
573.4	2242
573.6	2248
573.8	2264
574.0	2270
574.2	2275
574.4	2280
574.6	2290
574.8	2303
575.0	2325
575.2	2342
575.4	2353
575.6	2355
575.8	2365
576.0	2372
576.2	2383
576.4	2404
576.6	2425
576.8	2443
577.0	2449
577.2	2451
577.4	2460
577.6	2480
577.8	2504
578.0	2524
578.2	2537
578.4	2542
578.6	2550
578.8	2564
579.0	2572
579.2	2579
579.4	2585
579.6	2588
579.8	2603
580.0	2624
580.2	2638
580.4	2661
580.6	2673
580.8	2685
581.0	2693
581.2	2701
581.4	2706
581.6	2722
581.8	2731
582.0	2744
582.2	2752
582.4	2769
582.6	2786
582.8	2802
583.0	2815
583.2	2828
583.4	2839
583.6	2849
583.8	2866
584.0	2875
584.2	2893
584.4	2905
584.6	2915
584.8	2914
585.0	2925
585.2	2933
585.4	2956
585.6	2974
585.8	2986
586.0	2999
586.2	3020
586.4	3033
586.6	3046
586.8	3050
587.0	3052
587.2	3068
587.4	3086
587.6	3089
587.8	3093
588.0	3095
588.2	3101
588.4	3126
588.6	3146
588.8	3161
589.0	3182
589.2	3189
589.4	3184
589.6	3202
589.8	3209
590.0	3217
590.2	3223
590.4	3232
590.6	3249
590.8	3278
591.0	3292
591.2	3294
591.4	3295
591.6	3310
591.8	3325
592.0	3337
592.2	3351
592.4	3360
592.6	3381
592.8	3402
593.0	3399
593.2	3402
593.4	3407
593.6	3407
593.8	3421
594.0	3441
594.2	3455
594.4	3471
594.6	3479
594.8	3493
595.0	3498
595.2	3508
595.4	3527
595.6	3539
595.8	3552
596.0	3574
596.2	3579
596.4	3597
596.6	3616
596.8	3626
597.0	3622
597.2	3615
597.4	3612
597.6	3628
597.8	3645
598.0	3655
598.2	3654
598.4	3657
598.6	3666
598.8	3681
599.0	3700
599.2	3716
599.4	3730
599.6	3735
599.8	3738
600.0	3743
600.2	3754
600.4	3770
600.6	3789
600.8	3796
601.0	3802
601.2	3803
601.4	3816
601.6	3820
601.8	3828
602.0	3833
602.2	3845
602.4	3851
602.6	3880
602.8	3896
603.0	3905
603.2	3894
603.4	3888
603.6	3889
603.8	3905
604.0	3921
604.2	3949
604.4	3947
604.6	3950
604.8	3953
605.0	3965
605.2	3981
605.4	4006
605.6	4009
605.8	4017
606.0	4016
606.2	4034
606.4	4042
606.6	4050
606.8	4046
607.0	4043
607.2	4037
607.4	4045
607.6	4060
607.8	4072
608.0	4089
608.2	4100
608.4	4098
608.6	4098
608.8	4115
609.0	4127
609.2	4150
609.4	4165
609.6	4168
609.8	4170
610.0	4176
610.2	4180
610.4	4183
610.6	4190
610.8	4202
611.0	4205
611.2	4209
611.4	4213
611.6	4217
611.8	4225
612.0	4234
612.2	4235
612.4	4235
612.6	4242
612.8	4244
613.0	4254
613.2	4277
613.4	4306
613.6	4318
613.8	4327
614.0	4315
614.2	4307
614.4	4309
614.6	4331
614.8	4334
615.0	4340
615.2	4339
615.4	4345
615.6	4336
615.8	4356
616.0	4355
616.2	4364
616.4	4380
616.6	4388
616.8	4378
617.0	4377
617.2	4372
617.4	4382
617.6	4392
617.8	4394
618.0	4396
618.2	4405
618.4	4417
618.6	4425
618.8	4425
619.0	4423
619.2	4407
619.4	4411
619.6	4416
619.8	4421
620.0	4436
620.2	4451
620.4	4448
620.6	4454
620.8	4453
621.0	4446
621.2	4452
621.4	4462
621.6	4463
621.8	4473
622.0	4479
622.2	4482
622.4	4494
622.6	4500
622.8	4490
623.0	4497
623.2	4494
623.4	4493
623.6	4498
623.8	4504
624.0	4505
624.2	4513
624.4	4506
624.6	4512
624.8	4503
625.0	4513
625.2	4528
625.4	4527
625.6	4522
625.8	4530
626.0	4511
626.2	4511
626.4	4517
626.6	4517
626.8	4518
627.0	4529
627.2	4531
627.4	4532
627.6	4530
627.8	4529
628.0	4522
628.2	4533
628.4	4541
628.6	4541
628.8	4540
629.0	4545
629.2	4538
629.4	4532
629.6	4522
629.8	4513
630.0	4514
630.2	4530
630.4	4541
630.6	4546
630.8	4548
631.0	4541
631.2	4523
631.4	4517
631.6	4524
631.8	4520
632.0	4525
632.2	4522
632.4	4518
632.6	4517
632.8	4527
633.0	4512
633.2	4506
633.4	4490
633.6	4491
633.8	4491
634.0	4493
634.2	4491
634.4	4481
634.6	4465
634.8	4466
635.0	4465
635.2	4457
635.4	4461
635.6	4447
635.8	4436
636.0	4440
636.2	4448
636.4	4441
636.6	4445
636.8	4425
637.0	4407
637.2	4400
637.4	4397
637.6	4384
637.8	4390
638.0	4390
638.2	4382
638.4	4372
638.6	4364
638.8	4362
639.0	4370
639.2	4369
639.4	4353
639.6	4343
639.8	4332
640.0	4324
640.2	4314
640.4	4303
640.6	4289
640.8	4295
641.0	4286
641.2	4277
641.4	4267
641.6	4262
641.8	4255
642.0	4243
642.2	4233
642.4	4228
642.6	4224
642.8	4216
643.0	4204
643.2	4181
643.4	4166
643.6	4152
643.8	4155
644.0	4138
644.2	4130
644.4	4126
644.6	4117
644.8	4120
645.0	4123
645.2	4096
645.4	4076
645.6	4055
645.8	4047
646.0	4041
646.2	4035
646.4	4021
646.6	4003
646.8	3992
647.0	3983
647.2	3967
647.4	3958
647.6	3953
647.8	3942
648.0	3937
648.2	3918
648.4	3898
648.6	3877
648.8	3870
649.0	3861
649.2	3851
649.4	3837
649.6	3825
649.8	3806
650.0	3806
650.2	3797
650.4	3790
650.6	3765
650.8	3745
651.0	3721
651.2	3715
651.4	3699
651.6	3692
651.8	3679
652.0	3666
652.2	3659
652.4	3651
652.6	3636
652.8	3618
653.0	3606
653.2	3584
653.4	3570
653.6	3554
653.8	3533
654.0	3516
654.2	3514
654.4	3501
654.6	3493
654.8	3473
655.0	3448
655.2	3439
655.4	3429
655.6	3409
655.8	3388
656.0	3354
656.2	3339
656.4	3341
656.6	3334
656.8	3319
657.0	3314
657.2	3283
657.4	3269
657.6	3261
657.8	3235
658.0	3216
658.2	3219
658.4	3198
658.6	3184
658.8	3177
659.0	3143
659.2	3131
659.4	3121
659.6	3113
659.8	3092
660.0	3079
660.2	3057
660.4	3043
660.6	3023
660.8	3014
661.0	2993
661.2	2980
661.4	2963
661.6	2946
661.8	2926
662.0	2913
662.2	2900
662.4	2898
662.6	2881
662.8	2865
663.0	2838
663.2	2811
663.4	2791
663.6	2781
663.8	2771
664.0	2762
664.2	2745
664.4	2724
664.6	2712
664.8	2699
665.0	2690
665.2	2678
665.4	2662
665.6	2645
665.8	2635
666.0	2623
666.2	2609
666.4	2590
666.6	2578
666.8	2562
667.0	2551
667.2	2531
667.4	2507
667.6	2487
667.8	2476
668.0	2463
668.2	2453
668.4	2437
668.6	2417
668.8	2402
669.0	2382
669.2	2366
669.4	2357
669.6	2345
669.8	2333
670.0	2321
670.2	2308
670.4	2294
670.6	2285
670.8	2278
671.0	2266
671.2	2249
671.4	2231
671.6	2208
671.8	2193
672.0	2184
672.2	2167
672.4	2158
672.6	2144
672.8	2130
673.0	2111
673.2	2096
673.4	2070
673.6	2055
673.8	2039
674.0	2031
674.2	2020
674.4	2018
674.6	2005
674.8	1990
675.0	1974
675.2	1960
675.4	1946
675.6	1933
675.8	1925
676.0	1916
676.2	1915
676.4	1901
676.6	1887
676.8	1868
677.0	1862
677.2	1850
677.4	1844
677.6	1832
677.8	1818
678.0	1803
678.2	1792
678.4	1779
678.6	1764
678.8	1753
679.0	1736
679.2	1724
679.4	1707
679.6	1706
679.8	1689
680.0	1676
680.2	1664
680.4	1656
680.6	1647
680.8	1638
681.0	1620
681.2	1603
681.4	1591
681.6	1586
681.8	1578
682.0	1567
682.2	1559
682.4	1546
682.6	1536
682.8	1523
683.0	1515
683.2	1509
683.4	1500
683.6	1484
683.8	1466
684.0	1452
684.2	1448
684.4	1444
684.6	1438
684.8	1429
685.0	1418
685.2	1414
685.4	1405
685.6	1395
685.8	1377
686.0	1363
686.2	1347
686.4	1339
686.6	1331
686.8	1328
687.0	1308
687.2	1300
687.4	1295
687.6	1294
687.8	1294
688.0	1293
688.2	1274
688.4	1264
688.6	1253
688.8	1242
689.0	1236
689.2	1231
689.4	1225
689.6	1215
689.8	1202
690.0	1190
690.2	1186
690.4	1179
690.6	1170
690.8	1164
691.0	1156
691.2	1148
691.4	1143
691.6	1135
691.8	1121
692.0	1120
692.2	1107
692.4	1101
692.6	1093
692.8	1089
693.0	1082
693.2	1086
693.4	1071
693.6	1062
693.8	1052
694.0	1045
694.2	1036
694.4	1034
694.6	1016
694.8	1005
695.0	1003
695.2	1001
695.4	999.7
695.6	999.9
695.8	994.7
696.0	989.8
696.2	983.4
696.4	970.8
696.6	958.3
696.8	948.5
697.0	943.5
697.2	942.3
697.4	938.5
697.6	934.4
697.8	928.1
698.0	921.6
698.2	915.9
698.4	911.6
698.6	908.2
698.8	900.0
699.0	893.2
699.2	887.3
699.4	887.3
699.6	886.6
699.8	885.6
700.0	876.0
700.2	866.8
700.4	858.1
700.6	858.1
700.8	856.2
701.0	848.2
701.2	839.9
701.4	829.3
701.6	824.0
701.8	821.2
702.0	818.0
702.2	814.2
702.4	814.1
702.6	808.4
702.8	802.8
703.0	796.7
703.2	788.6
703.4	783.0
703.6	779.3
703.8	772.3
704.0	766.5
704.2	765.0
704.4	764.6
704.6	765.2
704.8	761.8
705.0	757.5
705.2	751.1
705.4	744.2
705.6	742.0
705.8	739.9
706.0	735.2
706.2	729.3
706.4	720.9
706.6	713.9
706.8	709.2
707.0	705.0
707.2	698.7
707.4	692.0
707.6	688.0
707.8	685.0
708.0	683.7
708.2	681.7
708.4	677.6
708.6	673.2
708.8	672.2
709.0	670.0
709.2	666.7
709.4	658.0
709.6	646.1
709.8	634.6
710.0	632.2
710.2	629.7
710.4	626.8
710.6	626.7
710.8	625.1
711.0	622.1
711.2	622.1
711.4	615.2
711.6	608.9
711.8	605.8
712.0	598.8
712.2	593.9
712.4	588.5
712.6	585.9
712.8	585.5
713.0	581.6
713.2	576.3
713.4	575.6
713.6	572.3
713.8	568.1
714.0	563.1
714.2	553.3
714.4	544.9
714.6	544.3
714.8	543.9
715.0	542.4
715.2	541.1
715.4	532.3
715.6	526.3
715.8	524.1
716.0	522.1
716.2	521.3
716.4	517.0
716.6	512.2
716.8	511.5
717.0	507.4
717.2	504.1
717.4	498.0
717.6	487.1
717.8	481.2
718.0	479.0
718.2	478.9
718.4	480.0
718.6	480.7
718.8	475.8
719.0	468.1
719.2	462.2
719.4	459.8
719.6	460.6
719.8	459.9
720.0	459.2
720.2	454.7
720.4	452.4
720.6	446.7
720.8	441.9
721.0	432.5
721.2	426.7
721.4	422.4
721.6	422.5
721.8	421.1
722.0	421.7
722.2	419.5
722.4	416.3
722.6	409.2
722.8	403.9
723.0	396.9
723.2	395.0
723.4	394.1
723.6	394.4
723.8	392.9
724.0	393.0
724.2	388.3
724.4	385.3
724.6	381.8
724.8	375.8
725.0	374.8
725.2	371.6
725.4	369.6
725.6	366.2
725.8	363.1
726.0	358.3
726.2	357.9
726.4	355.7
726.6	351.7
726.8	347.0
727.0	343.3
727.2	341.3
727.4	341.0
727.6	339.5
727.8	335.5
728.0	331.0
728.2	326.8
728.4	321.9
728.6	319.1
728.8	315.2
729.0	314.5
729.2	314.8
729.4	316.5
729.6	314.7
729.8	312.3
730.0	308.6
730.2	304.3
730.4	298.9
730.6	296.6
730.8	294.9
731.0	295.1
731.2	294.0
731.4	291.2
731.6	286.0
731.8	281.9
732.0	279.9
732.2	279.6
732.4	275.2
732.6	272.2
732.8	271.9
733.0	272.7
733.2	272.0
733.4	269.1
733.6	267.7
733.8	262.7
734.0	261.8
734.2	260.1
734.4	257.8
734.6	253.5
734.8	253.4
735.0	250.3
735.2	248.5
735.4	245.1
735.6	244.9
735.8	241.9
736.0	240.9
736.2	240.8
736.4	238.3
736.6	236.5
736.8	235.4
737.0	232.0
737.2	230.6
737.4	228.9
737.6	225.5
737.8	223.2
738.0	221.4
738.2	218.2
738.4	216.3
738.6	215.5
738.8	212.9
739.0	213.3
739.2	212.2
739.4	211.6
739.6	210.9
739.8	209.6
740.0	207.7
740.2	205.4
740.4	200.3
740.6	200.9
740.8	199.6
741.0	198.6
741.2	197.5
741.4	195.7
741.6	191.6
741.8	192.8
742.0	187.3
742.2	184.3
742.4	181.7
742.6	184.4
742.8	184.9
743.0	184.5
743.2	181.0
743.4	178.2
743.6	176.0
743.8	176.8
744.0	178.1
744.2	174.5
744.4	173.4
744.6	170.7
744.8	169.2
745.0	166.4
745.2	164.8
745.4	160.8
745.6	161.3
745.8	161.5
746.0	163.3
746.2	163.9
746.4	161.1
746.6	158.1
746.8	156.5
747.0	152.6
747.2	149.4
747.4	146.4
747.6	144.2
747.8	146.1
748.0	148.0
748.2	149.8
748.4	150.8
748.6	147.8
748.8	144.8
749.0	142.3
749.2	138.2
749.4	137.2
749.6	137.3
749.8	137.3
750.0	138.8
750.2	138.3
750.4	135.6
750.6	133.2
750.8	129.6
751.0	129.9
751.2	131.1
751.4	131.8
751.6	130.1
751.8	126.8
752.0	125.0
752.2	125.7
752.4	124.9
752.6	124.2
752.8	123.5
753.0	120.8
753.2	121.5
753.4	120.3
753.6	119.3
753.8	118.1
754.0	117.4
754.2	115.3
754.4	114.1
754.6	112.4
754.8	110.2
755.0	109.0
755.2	107.9
755.4	108.7
755.6	108.6
755.8	109.9
756.0	108.5
756.2	108.7
756.4	107.0
756.6	106.8
756.8	105.2
757.0	104.8
757.2	102.5
757.4	102.1
757.6	100.2
757.8	99.08
758.0	97.64
758.2	97.46
758.4	97.25
758.6	97.72
758.8	96.67
759.0	97.08
759.2	96.38
759.4	96.20
759.6	95.75
759.8	94.31
760.0	93.42
760.2	93.42
760.4	92.47
760.6	90.87
760.8	88.98
761.0	88.80
761.2	89.27
761.4	88.47
761.6	87.48
761.8	85.03
762.0	83.28
762.2	83.84
762.4	83.71
762.6	83.20
762.8	82.43
763.0	81.89
763.2	80.42
763.4	81.75
763.6	82.93
763.8	82.13
764.0	80.16
764.2	78.65
764.4	77.53
764.6	76.14
764.8	77.25
765.0	77.19
765.2	76.86
765.4	74.53
765.6	73.77
765.8	70.34
766.0	71.09
766.2	71.11
766.4	71.50
766.6	71.56
766.8	72.22
767.0	70.85
767.2	71.16
767.4	70.61
767.6	70.06
767.8	69.48
768.0	68.73
768.2	67.35
768.4	66.54
768.6	66.97
768.8	67.56
769.0	66.91
769.2	65.65
769.4	64.83
769.6	64.57
769.8	63.52
770.0	63.64
770.2	63.78
770.4	63.58
770.6	63.18
770.8	63.42
771.0	61.09
771.2	60.35
771.4	59.99
771.6	59.76
771.8	59.54
772.0	58.89
772.2	56.19
772.4	56.28
772.6	56.12
772.8	55.76
773.0	56.99
773.2	56.48
773.4	55.64
773.6	55.66
773.8	55.49
774.0	54.91
774.2	55.95
774.4	55.45
774.6	55.57
774.8	53.97
775.0	53.34
775.2	52.07
775.4	51.69
775.6	50.85
775.8	49.22
776.0	48.51
776.2	48.44
776.4	48.03
776.6	48.03
776.8	48.22
777.0	48.08
777.2	48.75
777.4	48.48
777.6	48.50
777.8	47.45
778.0	46.32
778.2	46.10
778.4	46.07
778.6	45.06
778.8	45.29
779.0	45.75
779.2	45.29
779.4	44.94
779.6	45.82
779.8	44.43
780.0	42.79
780.2	42.95
780.4	43.00
780.6	43.04
780.8	43.71
781.0	43.42
781.2	41.59
781.4	40.35
781.6	40.57
781.8	40.82
782.0	40.91
782.2	41.45
782.4	40.20
782.6	39.21
782.8	38.99
783.0	38.49
783.2	39.15
783.4	41.12
783.6	41.71
783.8	41.25
784.0	40.87
784.2	38.68
784.4	37.28
784.6	37.85
784.8	38.74
785.0	38.31
785.2	39.46
785.4	38.76
785.6	37.27
785.8	37.33
786.0	37.94
786.2	38.27
786.4	39.34
786.6	38.87
786.8	38.23
787.0	37.50
787.2	36.67
787.4	36.64
787.6	36.20
787.8	35.22
788.0	35.20
788.2	34.84
788.4	35.50
788.6	35.97
788.8	36.78
789.0	36.12
789.2	36.39
789.4	35.41
789.6	35.00
789.8	34.74
790.0	34.67
790.2	34.65
790.4	34.88
790.6	33.85
790.8	33.66
791.0	34.01
791.2	33.22
791.4	33.04
791.6	32.78
791.8	32.26
792.0	32.80
792.2	33.07
792.4	33.14
792.6	33.42
792.8	33.23
793.0	32.03
793.2	31.25
793.4	30.60
793.6	30.33
793.8	31.17
794.0	30.75
794.2	30.74
794.4	31.44
794.6	31.62
794.8	31.68
795.0	31.69
795.2	30.19
795.4	29.36
795.6	29.88
795.8	29.84
796.0	29.78
796.2	30.74
796.4	30.67
796.6	30.18
796.8	30.12
797.0	30.00
797.2	29.03
797.4	30.14
797.6	30.74
797.8	30.79
798.0	29.76
798.2	29.49
798.4	28.31
798.6	28.35
798.8	29.38
799.0	30.03
799.2	29.64
799.4	30.33
799.6	30.35
799.8	30.35
800.0	29.60
800.2	28.86
800.4	28.13
800.6	27.12
800.8	27.55
801.0	28.08
801.2	27.44
801.4	27.77
801.6	27.95
801.8	27.31
802.0	27.47
802.2	27.91
802.4	28.26
802.6	28.55
802.8	27.66
803.0	26.89
803.2	26.05
803.4	25.73
803.6	26.37
803.8	27.09
804.0	26.80
804.2	26.34
804.4	26.56
804.6	26.34
804.8	26.66
805.0	27.37
805.2	27.30
805.4	27.39
805.6	27.15
805.8	26.30
806.0	24.90
806.2	24.97
806.4	24.42
806.6	24.41
806.8	24.23
807.0	24.16
807.2	23.67
807.4	24.84
807.6	25.40
807.8	24.84
808.0	24.29
808.2	23.89
808.4	24.00
808.6	24.68
808.8	25.10
809.0	24.05
809.2	23.48
809.4	22.87
809.6	22.60
809.8	21.93
810.0	21.98
810.2	21.94
810.4	22.88
810.6	23.75
810.8	22.87
811.0	22.34
811.2	22.44
811.4	22.01
811.6	22.07
811.8	22.55
812.0	21.19
812.2	20.88
812.4	20.57
812.6	20.27
812.8	20.47
813.0	20.86
813.2	20.75
813.4	20.15
813.6	19.67
813.8	19.86
814.0	20.14
814.2	20.62
814.4	20.34
814.6	19.79
814.8	19.20
815.0	18.69
815.2	19.15
815.4	19.91
815.6	19.36
815.8	19.04
816.0	18.14
816.2	17.82
816.4	18.13
816.6	18.06
816.8	18.95
817.0	19.29
817.2	18.77
817.4	18.88
817.6	18.64
817.8	17.59
818.0	18.25
818.2	18.06
818.4	17.73
818.6	17.62
818.8	18.13
819.0	17.77
819.2	17.48
819.4	16.70
819.6	16.59
819.8	15.98
820.0	16.75
820.2	17.31
820.4	18.01
820.6	17.73
820.8	17.97
821.0	17.61
821.2	17.70
821.4	17.55
821.6	17.48
821.8	16.43
822.0	16.43
822.2	16.56
822.4	16.53
822.6	16.19
822.8	16.18
823.0	15.89
823.2	15.47
823.4	15.08
823.6	15.22
823.8	14.94
824.0	15.43
824.2	15.75
824.4	15.36
824.6	14.67
824.8	14.48
825.0	14.43
825.2	14.51
825.4	14.54
825.6	14.30
825.8	13.25
826.0	13.33
826.2	13.43
826.4	14.16
826.6	14.41
826.8	14.06
827.0	13.91
827.2	14.57
827.4	14.42
827.6	14.76
827.8	14.22
828.0	13.74
828.2	14.11
828.4	13.87
828.6	13.18
828.8	12.95
829.0	12.66
829.2	12.46
829.4	12.78
829.6	12.56
829.8	12.84
830.0	13.53
830.2	13.35
830.4	12.70
830.6	11.81
830.8	10.93
831.0	11.19
831.2	12.01
831.4	12.09
831.6	12.37
831.8	11.97
832.0	11.38
832.2	11.15
832.4	11.59
832.6	11.60
832.8	11.89
833.0	11.63
833.2	11.56
833.4	11.09
833.6	11.08
833.8	10.83
834.0	10.68
834.2	10.62
834.4	11.13
834.6	11.27
834.8	11.30
835.0	11.03
835.2	10.72
835.4	10.54
835.6	10.92
835.8	11.06
836.0	11.39
836.2	11.28
836.4	11.50
836.6	11.16
836.8	10.45
837.0	10.03
837.2	9.746
837.4	9.332
837.6	9.503
837.8	9.657
838.0	9.013
838.2	9.474
838.4	9.528
838.6	9.975
838.8	9.911
839.0	9.813
839.2	8.962
839.4	8.600
839.6	8.627
839.8	8.971
840.0	9.505
840.2	10.06
840.4	9.999
840.6	9.649
840.8	9.248
841.0	8.447
841.2	8.421
841.4	8.774
841.6	8.995
841.8	8.868
842.0	8.466
842.2	7.842
842.4	7.715
842.6	8.051
842.8	8.696
843.0	9.314
843.2	9.577
843.4	9.335
843.6	8.661
843.8	7.555
844.0	6.916
844.2	6.927
844.4	6.641
844.6	7.198
844.8	7.673
845.0	7.696
845.2	7.783
845.4	7.989
845.6	7.357
845.8	7.321
846.0	7.085
846.2	6.664
846.4	6.775
846.6	7.253
846.8	7.489
847.0	8.074
847.2	7.904
847.4	7.799
847.6	7.597
847.8	7.320
848.0	7.181
848.2	7.129
848.4	6.920
848.6	7.002
848.8	6.897
849.0	7.095
849.2	7.203
849.4	6.885
849.6	6.666
849.8	6.692
850.0	6.746
850.2	6.684
850.4	6.445
850.6	6.471
850.8	6.487
851.0	6.697
851.2	6.692
851.4	6.361
851.6	5.985
851.8	6.338
852.0	6.308
852.2	5.971
852.4	5.986
852.6	5.989
852.8	6.186
853.0	6.592
853.2	6.683
853.4	6.321
853.6	5.997
853.8	5.449
854.0	5.665
854.2	5.397
854.4	6.107
854.6	6.516
854.8	6.756
855.0	6.290
855.2	6.257
855.4	5.934
855.6	6.080
855.8	5.914
856.0	5.781
856.2	5.732
856.4	5.656
856.6	5.674
856.8	5.532
857.0	5.130
857.2	5.097
857.4	5.566
857.6	5.595
857.8	5.615
858.0	5.651
858.2	5.425
858.4	5.713
858.6	6.262
858.8	6.630
859.0	6.627
859.2	6.405
859.4	6.018
859.6	5.862
859.8	5.627
860.0	5.409
860.2	5.132
860.4	5.209
860.6	5.276
860.8	5.393
861.0	5.487
861.2	5.585
861.4	5.749
861.6	5.940
861.8	5.661
862.0	5.280
862.2	5.020
862.4	4.990
862.6	5.076
862.8	5.097
863.0	4.859
863.2	4.818
863.4	4.669
863.6	5.276
863.8	5.674
864.0	5.474
864.2	5.416
864.4	5.348
864.6	5.354
864.8	5.802
865.0	5.811
865.2	5.354
865.4	5.417
865.6	5.008
865.8	4.703
866.0	4.657
866.2	4.755
866.4	4.837
866.6	5.549
866.8	5.780
867.0	5.645
867.2	5.460
867.4	5.304
867.6	4.984
867.8	5.021
868.0	5.216
868.2	5.028
868.4	5.109
868.6	5.122
868.8	4.779
869.0	4.381
869.2	4.599
869.4	4.604
869.6	5.012
869.8	5.276
870.0	5.127
870.2	4.997
870.4	5.171
870.6	4.978
870.8	4.905
871.0	5.071
871.2	4.920
871.4	5.051
871.6	5.388
871.8	5.527
872.0	5.537
872.2	5.931
872.4	5.526
872.6	5.462
872.8	5.278
873.0	4.943
873.2	4.882
873.4	4.827
873.6	4.512
873.8	4.753
874.0	4.862
874.2	4.768
874.4	5.461
874.6	5.324
874.8	4.763
875.0	4.500
875.2	4.396
875.4	4.076
875.6	4.693
875.8	4.727
876.0	4.723
876.2	5.312
876.4	5.678
876.6	5.703
876.8	5.651
877.0	5.302
877.2	4.841
877.4	4.742
877.6	4.745
877.8	4.970
878.0	4.957
878.2	5.094
878.4	4.652
878.6	4.878
878.8	5.134
879.0	5.191
879.2	5.069
879.4	5.014
879.6	4.356
879.8	4.529
880.0	5.100
880.2	5.019
880.4	5.141
880.6	5.321
880.8	5.339
881.0	5.161
881.2	5.499
881.4	5.007
881.6	4.692
881.8	5.041
882.0	5.325
882.2	5.166
882.4	5.070
882.6	4.673
882.8	4.469
883.0	5.085
883.2	4.939
883.4	4.750
883.6	4.558
883.8	4.650
884.0	4.856
884.2	4.803
884.4	4.620
884.6	4.763
884.8	4.890
885.0	5.564
885.2	5.658
885.4	5.186
885.6	5.039
885.8	5.155
886.0	5.038
886.2	5.286
886.4	5.185
886.6	5.421
886.8	5.430
887.0	5.045
887.2	4.515
887.4	4.235
887.6	4.187
887.8	4.716
888.0	5.124
888.2	5.228
888.4	5.304
888.6	4.991
888.8	4.788
889.0	5.073
889.2	5.130
889.4	5.074
889.6	5.297
889.8	5.359
890.0	5.335
890.2	5.283
890.4	4.817
890.6	4.609
890.8	4.685
891.0	5.060
891.2	5.462
891.4	5.359
891.6	5.239
891.8	5.473
892.0	4.993
892.2	4.520
892.4	4.518
892.6	4.476
892.8	4.596
893.0	5.106
893.2	4.976
893.4	4.911
893.6	4.963
893.8	5.293
894.0	5.143
894.2	4.974
894.4	4.991
894.6	4.656
894.8	4.656
895.0	4.733
895.2	4.642
895.4	4.745
895.6	4.974
895.8	4.676
896.0	4.451
896.2	4.318
896.4	4.570
896.6	4.992
896.8	5.437
897.0	5.606
897.2	5.448
897.4	5.138
897.6	5.058
897.8	4.722
898.0	4.453
898.2	4.294
898.4	4.173
898.6	3.974
898.8	4.542
899.0	4.935
899.2	5.015
899.4	5.057
899.6	4.706
899.8	4.593
900.0	5.075

