Sample:	'20211010A(EM)
File name:	r-c-dots 600S2- 370V.FDS
Run date:	'16:22:10, 03/22/2023
Operator:	Administrator
Comment:	'

Instrument
Model:	F-4700 FL Spectrophotometer
Serial number:	2019-001
ROM Version:	5J24010 00

Instrument parameters
Measurement type:	Wavelength scan
Scan mode:	Emission
Data mode:	Fluorescence
EX WL:	520.0 nm
EM  Start WL:	540.0 nm
EM  End WL:	900.0 nm
Scan speed:	1200 nm/min
Delay:	0.0 s
EX Slit:	10.0 nm
EM Slit:	10.0 nm
PMT Voltage:	370 V
Response:	0.002 s
Corrected spectra:	Off
Shutter control:	On

Processing performed
Savitsky-Golay smoothed
Smoothing order:	3
Number of points:	7
Number of times:	1

Peak integration
Integration method:	Rectangular
Sensitivity:	1
Threshold:	1.000

Peaks
No.	Start(nm)	Apex(nm)	End(nm)	Height(Data)	Valley(nm)	Valley(Data)
1	540.0	619.8	900.0	539.2	900.0	0.260

Data points
nm	Data
540.0	104.3
540.2	104.2
540.4	104.2
540.6	104.3
540.8	104.8
541.0	105.2
541.2	105.7
541.4	106.0
541.6	106.5
541.8	106.7
542.0	107.0
542.2	106.8
542.4	106.9
542.6	107.1
542.8	107.9
543.0	108.4
543.2	108.9
543.4	109.1
543.6	109.4
543.8	109.5
544.0	110.1
544.2	110.5
544.4	110.9
544.6	110.9
544.8	111.0
545.0	111.1
545.2	111.4
545.4	111.9
545.6	112.2
545.8	112.5
546.0	113.1
546.2	113.8
546.4	114.3
546.6	114.8
546.8	114.7
547.0	114.7
547.2	114.8
547.4	115.0
547.6	115.2
547.8	115.8
548.0	116.5
548.2	117.1
548.4	117.6
548.6	117.7
548.8	117.9
549.0	118.2
549.2	118.4
549.4	118.6
549.6	119.0
549.8	119.4
550.0	120.0
550.2	120.2
550.4	120.6
550.6	120.9
550.8	121.2
551.0	121.8
551.2	122.3
551.4	122.7
551.6	122.9
551.8	122.9
552.0	123.2
552.2	123.8
552.4	124.1
552.6	124.7
552.8	125.0
553.0	125.4
553.2	126.1
553.4	126.7
553.6	127.1
553.8	127.4
554.0	127.9
554.2	128.3
554.4	128.8
554.6	129.1
554.8	129.5
555.0	129.8
555.2	130.4
555.4	131.0
555.6	131.4
555.8	131.9
556.0	132.4
556.2	132.6
556.4	133.1
556.6	133.7
556.8	134.1
557.0	134.9
557.2	135.4
557.4	136.3
557.6	137.3
557.8	138.2
558.0	138.7
558.2	139.2
558.4	139.7
558.6	140.5
558.8	141.1
559.0	141.8
559.2	142.3
559.4	143.2
559.6	143.8
559.8	144.3
560.0	144.7
560.2	145.4
560.4	146.0
560.6	147.1
560.8	148.0
561.0	148.7
561.2	149.6
561.4	150.3
561.6	151.0
561.8	151.7
562.0	152.2
562.2	152.7
562.4	153.9
562.6	154.8
562.8	155.5
563.0	156.6
563.2	157.4
563.4	158.1
563.6	159.2
563.8	160.1
564.0	161.0
564.2	162.0
564.4	163.1
564.6	164.1
564.8	165.0
565.0	165.9
565.2	166.8
565.4	167.7
565.6	168.9
565.8	170.1
566.0	171.2
566.2	172.1
566.4	172.6
566.6	173.5
566.8	174.5
567.0	175.7
567.2	177.4
567.4	178.7
567.6	179.6
567.8	180.6
568.0	181.6
568.2	182.8
568.4	184.3
568.6	185.5
568.8	186.5
569.0	187.6
569.2	188.9
569.4	190.2
569.6	191.4
569.8	193.0
570.0	194.1
570.2	195.5
570.4	196.7
570.6	197.7
570.8	199.0
571.0	200.3
571.2	201.8
571.4	203.3
571.6	204.8
571.8	206.1
572.0	207.7
572.2	208.8
572.4	210.2
572.6	211.3
572.8	212.4
573.0	213.9
573.2	215.6
573.4	217.3
573.6	219.1
573.8	220.7
574.0	222.0
574.2	223.7
574.4	224.9
574.6	226.2
574.8	227.4
575.0	228.9
575.2	230.8
575.4	232.8
575.6	234.1
575.8	235.8
576.0	236.8
576.2	238.1
576.4	239.9
576.6	241.5
576.8	243.4
577.0	245.2
577.2	246.6
577.4	248.3
577.6	249.8
577.8	251.5
578.0	253.4
578.2	255.1
578.4	256.5
578.6	258.4
578.8	259.4
579.0	260.8
579.2	262.1
579.4	264.0
579.6	265.9
579.8	268.6
580.0	270.5
580.2	272.3
580.4	273.9
580.6	275.6
580.8	277.2
581.0	279.1
581.2	280.9
581.4	282.4
581.6	284.5
581.8	286.4
582.0	288.0
582.2	289.6
582.4	291.0
582.6	292.5
582.8	294.7
583.0	296.5
583.2	298.4
583.4	299.8
583.6	301.1
583.8	302.9
584.0	304.6
584.2	306.4
584.4	308.1
584.6	309.9
584.8	312.0
585.0	314.1
585.2	315.8
585.4	317.9
585.6	319.5
585.8	321.8
586.0	324.2
586.2	326.1
586.4	328.0
586.6	330.1
586.8	332.1
587.0	333.8
587.2	335.3
587.4	337.0
587.6	338.5
587.8	340.2
588.0	342.1
588.2	343.8
588.4	345.5
588.6	347.6
588.8	349.6
589.0	351.4
589.2	353.2
589.4	354.7
589.6	356.6
589.8	358.7
590.0	360.9
590.2	362.6
590.4	364.1
590.6	365.6
590.8	367.5
591.0	369.8
591.2	371.8
591.4	374.0
591.6	375.6
591.8	377.7
592.0	379.6
592.2	381.6
592.4	383.3
592.6	385.2
592.8	386.6
593.0	388.7
593.2	390.8
593.4	392.3
593.6	394.5
593.8	396.5
594.0	398.3
594.2	400.1
594.4	402.0
594.6	402.8
594.8	404.6
595.0	406.4
595.2	408.7
595.4	410.6
595.6	412.5
595.8	413.8
596.0	415.4
596.2	417.5
596.4	419.9
596.6	421.9
596.8	423.9
597.0	425.7
597.2	427.3
597.4	429.3
597.6	430.8
597.8	432.0
598.0	433.3
598.2	434.5
598.4	435.8
598.6	437.7
598.8	439.2
599.0	441.0
599.2	442.4
599.4	444.3
599.6	445.7
599.8	447.6
600.0	449.2
600.2	451.5
600.4	453.0
600.6	455.5
600.8	456.8
601.0	458.2
601.2	459.4
601.4	460.9
601.6	462.1
601.8	463.8
602.0	465.3
602.2	466.6
602.4	467.9
602.6	469.8
602.8	471.5
603.0	472.9
603.2	474.6
603.4	475.9
603.6	477.1
603.8	478.6
604.0	479.5
604.2	480.8
604.4	482.2
604.6	484.0
604.8	485.8
605.0	487.3
605.2	488.7
605.4	489.8
605.6	491.0
605.8	492.0
606.0	493.1
606.2	494.3
606.4	495.4
606.6	496.2
606.8	497.5
607.0	498.9
607.2	500.9
607.4	502.7
607.6	503.5
607.8	504.1
608.0	505.0
608.2	506.6
608.4	508.1
608.6	509.5
608.8	510.6
609.0	510.5
609.2	511.4
609.4	512.3
609.6	513.1
609.8	514.6
610.0	515.6
610.2	515.8
610.4	517.1
610.6	518.2
610.8	519.6
611.0	520.5
611.2	520.4
611.4	520.5
611.6	521.7
611.8	522.8
612.0	524.6
612.2	525.8
612.4	526.0
612.6	526.2
612.8	526.8
613.0	526.5
613.2	527.6
613.4	528.8
613.6	529.8
613.8	530.9
614.0	532.5
614.2	533.2
614.4	533.2
614.6	532.7
614.8	532.6
615.0	532.5
615.2	533.0
615.4	533.5
615.6	533.6
615.8	533.8
616.0	534.2
616.2	535.1
616.4	535.6
616.6	536.1
616.8	536.4
617.0	535.9
617.2	535.4
617.4	535.8
617.6	536.4
617.8	537.3
618.0	537.9
618.2	538.1
618.4	538.3
618.6	538.8
618.8	539.2
619.0	538.6
619.2	537.9
619.4	538.1
619.6	538.6
619.8	539.2
620.0	539.2
620.2	538.6
620.4	537.4
620.6	537.2
620.8	537.4
621.0	537.3
621.2	537.1
621.4	537.0
621.6	535.9
621.8	535.2
622.0	535.3
622.2	535.6
622.4	535.7
622.6	535.3
622.8	535.5
623.0	535.1
623.2	534.9
623.4	534.2
623.6	533.1
623.8	532.2
624.0	531.9
624.2	532.4
624.4	532.4
624.6	532.1
624.8	531.3
625.0	530.7
625.2	529.8
625.4	529.2
625.6	528.2
625.8	526.9
626.0	525.6
626.2	525.9
626.4	525.8
626.6	525.2
626.8	524.1
627.0	522.6
627.2	521.0
627.4	520.5
627.6	520.2
627.8	520.0
628.0	519.9
628.2	520.2
628.4	519.5
628.6	518.6
628.8	517.3
629.0	515.7
629.2	514.2
629.4	513.4
629.6	512.5
629.8	511.6
630.0	510.5
630.2	509.2
630.4	507.9
630.6	506.7
630.8	505.8
631.0	504.6
631.2	503.6
631.4	502.6
631.6	501.4
631.8	500.2
632.0	499.0
632.2	498.1
632.4	497.6
632.6	496.8
632.8	495.7
633.0	494.2
633.2	492.8
633.4	491.8
633.6	491.2
633.8	490.1
634.0	488.6
634.2	486.6
634.4	485.1
634.6	483.3
634.8	481.9
635.0	480.2
635.2	479.0
635.4	477.4
635.6	476.7
635.8	475.5
636.0	474.2
636.2	472.9
636.4	471.7
636.6	470.1
636.8	468.8
637.0	467.7
637.2	466.6
637.4	465.7
637.6	464.5
637.8	463.1
638.0	461.2
638.2	459.4
638.4	457.3
638.6	455.3
638.8	453.4
639.0	451.9
639.2	450.9
639.4	449.4
639.6	447.7
639.8	446.4
640.0	444.7
640.2	443.2
640.4	441.9
640.6	439.8
640.8	438.0
641.0	436.7
641.2	436.0
641.4	434.7
641.6	433.0
641.8	431.2
642.0	429.5
642.2	428.0
642.4	427.0
642.6	425.1
642.8	423.4
643.0	421.9
643.2	420.1
643.4	418.6
643.6	416.4
643.8	414.4
644.0	412.5
644.2	411.2
644.4	409.6
644.6	408.3
644.8	406.7
645.0	404.3
645.2	402.8
645.4	401.1
645.6	399.9
645.8	398.6
646.0	397.2
646.2	395.2
646.4	394.0
646.6	392.6
646.8	391.3
647.0	388.8
647.2	386.4
647.4	384.4
647.6	382.1
647.8	381.2
648.0	380.0
648.2	378.5
648.4	376.6
648.6	375.0
648.8	372.8
649.0	371.2
649.2	369.4
649.4	368.4
649.6	367.1
649.8	365.5
650.0	363.9
650.2	361.8
650.4	360.0
650.6	358.9
650.8	357.3
651.0	355.2
651.2	353.4
651.4	351.5
651.6	349.9
651.8	348.3
652.0	346.0
652.2	344.0
652.4	342.4
652.6	341.1
652.8	339.8
653.0	337.9
653.2	336.0
653.4	334.6
653.6	333.1
653.8	331.7
654.0	329.8
654.2	328.0
654.4	326.3
654.6	324.9
654.8	323.5
655.0	321.8
655.2	319.7
655.4	318.2
655.6	317.0
655.8	316.1
656.0	315.1
656.2	313.4
656.4	311.4
656.6	309.5
656.8	307.8
657.0	305.8
657.2	303.7
657.4	302.0
657.6	300.5
657.8	299.2
658.0	298.0
658.2	296.1
658.4	294.0
658.6	292.4
658.8	291.0
659.0	289.4
659.2	288.3
659.4	286.9
659.6	285.6
659.8	283.9
660.0	282.0
660.2	280.4
660.4	278.7
660.6	276.9
660.8	275.7
661.0	274.4
661.2	273.1
661.4	271.8
661.6	270.3
661.8	268.4
662.0	266.8
662.2	265.7
662.4	264.2
662.6	262.7
662.8	261.5
663.0	260.1
663.2	258.5
663.4	257.1
663.6	255.2
663.8	253.5
664.0	252.0
664.2	250.7
664.4	249.3
664.6	247.6
664.8	246.2
665.0	244.9
665.2	243.4
665.4	241.9
665.6	240.5
665.8	239.0
666.0	237.7
666.2	236.1
666.4	234.8
666.6	233.3
666.8	231.9
667.0	230.6
667.2	229.3
667.4	228.1
667.6	226.8
667.8	225.8
668.0	224.4
668.2	222.8
668.4	221.5
668.6	220.5
668.8	219.2
669.0	218.2
669.2	216.5
669.4	214.8
669.6	213.4
669.8	212.2
670.0	211.5
670.2	210.4
670.4	208.9
670.6	207.1
670.8	205.8
671.0	204.5
671.2	203.4
671.4	202.2
671.6	201.0
671.8	199.6
672.0	198.4
672.2	197.2
672.4	195.7
672.6	194.7
672.8	194.0
673.0	193.1
673.2	191.9
673.4	190.6
673.6	189.2
673.8	187.9
674.0	186.7
674.2	185.6
674.4	184.5
674.6	183.0
674.8	181.6
675.0	180.1
675.2	178.8
675.4	178.0
675.6	176.7
675.8	175.4
676.0	174.7
676.2	173.4
676.4	172.5
676.6	171.4
676.8	170.1
677.0	168.9
677.2	168.1
677.4	167.0
677.6	166.3
677.8	165.2
678.0	164.2
678.2	162.7
678.4	161.6
678.6	160.5
678.8	159.6
679.0	158.9
679.2	158.2
679.4	156.9
679.6	155.8
679.8	154.8
680.0	153.4
680.2	152.3
680.4	151.4
680.6	150.2
680.8	149.1
681.0	148.1
681.2	147.1
681.4	146.1
681.6	145.5
681.8	144.7
682.0	144.0
682.2	143.0
682.4	141.8
682.6	140.7
682.8	139.7
683.0	138.7
683.2	137.9
683.4	136.9
683.6	135.8
683.8	134.9
684.0	133.9
684.2	133.0
684.4	132.2
684.6	131.2
684.8	130.2
685.0	129.4
685.2	128.4
685.4	127.9
685.6	127.4
685.8	126.6
686.0	125.6
686.2	124.7
686.4	123.5
686.6	122.7
686.8	122.1
687.0	121.1
687.2	120.4
687.4	119.7
687.6	118.6
687.8	117.7
688.0	116.9
688.2	116.3
688.4	115.9
688.6	115.2
688.8	114.3
689.0	113.2
689.2	112.0
689.4	111.1
689.6	110.4
689.8	109.7
690.0	109.5
690.2	109.1
690.4	108.4
690.6	107.5
690.8	106.5
691.0	105.7
691.2	105.0
691.4	104.6
691.6	104.1
691.8	103.4
692.0	102.6
692.2	101.8
692.4	100.9
692.6	100.3
692.8	99.73
693.0	99.08
693.2	98.59
693.4	98.17
693.6	97.62
693.8	96.87
694.0	96.28
694.2	95.43
694.4	94.87
694.6	94.47
694.8	93.79
695.0	92.97
695.2	92.29
695.4	91.54
695.6	91.09
695.8	90.71
696.0	90.30
696.2	89.57
696.4	88.88
696.6	88.29
696.8	87.64
697.0	87.12
697.2	86.38
697.4	85.70
697.6	85.18
697.8	84.93
698.0	84.40
698.2	83.94
698.4	83.11
698.6	82.59
698.8	81.97
699.0	81.81
699.2	81.24
699.4	80.78
699.6	80.18
699.8	79.78
700.0	79.09
700.2	78.70
700.4	78.13
700.6	77.69
700.8	77.15
701.0	76.78
701.2	76.19
701.4	75.71
701.6	75.16
701.8	74.59
702.0	74.10
702.2	73.64
702.4	73.23
702.6	72.93
702.8	72.46
703.0	72.10
703.2	71.76
703.4	71.24
703.6	70.73
703.8	70.11
704.0	69.53
704.2	69.13
704.4	68.83
704.6	68.42
704.8	68.12
705.0	67.74
705.2	67.32
705.4	66.80
705.6	66.45
705.8	65.79
706.0	65.38
706.2	64.92
706.4	64.49
706.6	64.16
706.8	64.02
707.0	63.56
707.2	63.30
707.4	62.72
707.6	62.15
707.8	61.74
708.0	61.37
708.2	60.79
708.4	60.51
708.6	60.05
708.8	59.61
709.0	59.33
709.2	59.06
709.4	58.59
709.6	58.19
709.8	57.80
710.0	57.37
710.2	56.96
710.4	56.68
710.6	56.24
710.8	55.75
711.0	55.24
711.2	54.71
711.4	54.31
711.6	53.97
711.8	53.63
712.0	53.46
712.2	53.12
712.4	52.90
712.6	52.46
712.8	51.89
713.0	51.46
713.2	51.09
713.4	50.64
713.6	50.41
713.8	49.97
714.0	49.51
714.2	49.14
714.4	48.95
714.6	48.71
714.8	48.39
715.0	48.08
715.2	47.58
715.4	47.00
715.6	46.65
715.8	46.28
716.0	46.02
716.2	45.76
716.4	45.50
716.6	44.98
716.8	44.64
717.0	44.23
717.2	44.06
717.4	43.80
717.6	43.67
717.8	43.28
718.0	43.06
718.2	42.64
718.4	42.29
718.6	41.89
718.8	41.62
719.0	41.22
719.2	40.96
719.4	40.65
719.6	40.27
719.8	39.98
720.0	39.72
720.2	39.36
720.4	38.96
720.6	38.63
720.8	38.22
721.0	38.03
721.2	37.89
721.4	37.73
721.6	37.37
721.8	37.09
722.0	36.69
722.2	36.26
722.4	35.85
722.6	35.57
722.8	35.35
723.0	35.43
723.2	35.26
723.4	35.01
723.6	34.70
723.8	34.17
724.0	33.73
724.2	33.55
724.4	33.20
724.6	33.14
724.8	33.06
725.0	32.61
725.2	32.24
725.4	31.83
725.6	31.53
725.8	31.27
726.0	31.08
726.2	30.77
726.4	30.58
726.6	30.25
726.8	30.16
727.0	29.84
727.2	29.60
727.4	29.37
727.6	29.16
727.8	28.89
728.0	28.82
728.2	28.52
728.4	28.22
728.6	28.04
728.8	27.88
729.0	27.62
729.2	27.40
729.4	27.18
729.6	26.95
729.8	26.65
730.0	26.50
730.2	26.24
730.4	25.98
730.6	25.82
730.8	25.57
731.0	25.30
731.2	25.10
731.4	24.98
731.6	24.86
731.8	24.66
732.0	24.48
732.2	24.30
732.4	24.04
732.6	23.87
732.8	23.62
733.0	23.40
733.2	23.23
733.4	23.04
733.6	22.92
733.8	22.72
734.0	22.36
734.2	22.18
734.4	21.98
734.6	21.78
734.8	21.60
735.0	21.40
735.2	21.11
735.4	21.13
735.6	21.11
735.8	21.07
736.0	20.88
736.2	20.61
736.4	20.31
736.6	20.07
736.8	19.87
737.0	19.70
737.2	19.59
737.4	19.42
737.6	19.34
737.8	19.24
738.0	19.08
738.2	18.86
738.4	18.76
738.6	18.60
738.8	18.39
739.0	18.31
739.2	18.08
739.4	17.86
739.6	17.76
739.8	17.73
740.0	17.58
740.2	17.45
740.4	17.21
740.6	16.92
740.8	16.78
741.0	16.78
741.2	16.73
741.4	16.55
741.6	16.33
741.8	16.11
742.0	15.95
742.2	15.91
742.4	15.82
742.6	15.69
742.8	15.53
743.0	15.48
743.2	15.40
743.4	15.31
743.6	15.17
743.8	15.02
744.0	14.89
744.2	14.82
744.4	14.80
744.6	14.69
744.8	14.57
745.0	14.42
745.2	14.30
745.4	14.13
745.6	14.09
745.8	13.92
746.0	13.80
746.2	13.64
746.4	13.53
746.6	13.39
746.8	13.34
747.0	13.29
747.2	13.23
747.4	13.07
747.6	12.96
747.8	12.80
748.0	12.71
748.2	12.67
748.4	12.63
748.6	12.53
748.8	12.43
749.0	12.35
749.2	12.21
749.4	12.05
749.6	11.95
749.8	11.80
750.0	11.67
750.2	11.53
750.4	11.40
750.6	11.33
750.8	11.27
751.0	11.22
751.2	11.21
751.4	11.07
751.6	11.03
751.8	10.90
752.0	10.78
752.2	10.70
752.4	10.60
752.6	10.54
752.8	10.56
753.0	10.47
753.2	10.39
753.4	10.28
753.6	10.15
753.8	10.12
754.0	10.08
754.2	10.02
754.4	9.934
754.6	9.838
754.8	9.750
755.0	9.714
755.2	9.582
755.4	9.507
755.6	9.423
755.8	9.356
756.0	9.241
756.2	9.212
756.4	9.113
756.6	9.021
756.8	8.946
757.0	8.883
757.2	8.823
757.4	8.817
757.6	8.736
757.8	8.635
758.0	8.554
758.2	8.473
758.4	8.414
758.6	8.357
758.8	8.290
759.0	8.253
759.2	8.165
759.4	8.056
759.6	7.916
759.8	7.848
760.0	7.825
760.2	7.833
760.4	7.791
760.6	7.711
760.8	7.636
761.0	7.602
761.2	7.521
761.4	7.468
761.6	7.424
761.8	7.345
762.0	7.257
762.2	7.188
762.4	7.084
762.6	7.092
762.8	7.038
763.0	6.968
763.2	6.912
763.4	6.858
763.6	6.749
763.8	6.782
764.0	6.734
764.2	6.717
764.4	6.680
764.6	6.623
764.8	6.524
765.0	6.496
765.2	6.440
765.4	6.373
765.6	6.284
765.8	6.220
766.0	6.172
766.2	6.121
766.4	6.091
766.6	6.058
766.8	6.017
767.0	5.971
767.2	5.910
767.4	5.841
767.6	5.811
767.8	5.779
768.0	5.700
768.2	5.649
768.4	5.579
768.6	5.523
768.8	5.495
769.0	5.519
769.2	5.460
769.4	5.435
769.6	5.376
769.8	5.318
770.0	5.280
770.2	5.299
770.4	5.212
770.6	5.106
770.8	5.041
771.0	5.005
771.2	5.012
771.4	5.033
771.6	5.048
771.8	4.961
772.0	4.897
772.2	4.839
772.4	4.778
772.6	4.753
772.8	4.758
773.0	4.686
773.2	4.660
773.4	4.641
773.6	4.609
773.8	4.591
774.0	4.513
774.2	4.412
774.4	4.394
774.6	4.380
774.8	4.392
775.0	4.341
775.2	4.306
775.4	4.264
775.6	4.268
775.8	4.239
776.0	4.222
776.2	4.193
776.4	4.198
776.6	4.187
776.8	4.116
777.0	4.040
777.2	3.959
777.4	3.914
777.6	3.933
777.8	3.967
778.0	3.925
778.2	3.895
778.4	3.844
778.6	3.749
778.8	3.760
779.0	3.780
779.2	3.767
779.4	3.734
779.6	3.728
779.8	3.667
780.0	3.665
780.2	3.698
780.4	3.696
780.6	3.622
780.8	3.555
781.0	3.473
781.2	3.428
781.4	3.471
781.6	3.498
781.8	3.509
782.0	3.490
782.2	3.445
782.4	3.400
782.6	3.351
782.8	3.318
783.0	3.288
783.2	3.256
783.4	3.213
783.6	3.232
783.8	3.219
784.0	3.232
784.2	3.218
784.4	3.211
784.6	3.133
784.8	3.132
785.0	3.112
785.2	3.109
785.4	3.086
785.6	3.042
785.8	2.979
786.0	2.967
786.2	3.001
786.4	2.991
786.6	2.963
786.8	2.889
787.0	2.843
787.2	2.859
787.4	2.901
787.6	2.902
787.8	2.912
788.0	2.862
788.2	2.817
788.4	2.826
788.6	2.824
788.8	2.808
789.0	2.787
789.2	2.738
789.4	2.727
789.6	2.709
789.8	2.725
790.0	2.714
790.2	2.720
790.4	2.710
790.6	2.730
790.8	2.707
791.0	2.702
791.2	2.688
791.4	2.670
791.6	2.623
791.8	2.621
792.0	2.598
792.2	2.596
792.4	2.569
792.6	2.542
792.8	2.494
793.0	2.520
793.2	2.532
793.4	2.537
793.6	2.526
793.8	2.494
794.0	2.474
794.2	2.480
794.4	2.473
794.6	2.460
794.8	2.462
795.0	2.423
795.2	2.411
795.4	2.380
795.6	2.359
795.8	2.369
796.0	2.373
796.2	2.374
796.4	2.373
796.6	2.360
796.8	2.359
797.0	2.326
797.2	2.296
797.4	2.253
797.6	2.220
797.8	2.236
798.0	2.283
798.2	2.270
798.4	2.268
798.6	2.214
798.8	2.170
799.0	2.190
799.2	2.199
799.4	2.166
799.6	2.167
799.8	2.133
800.0	2.114
800.2	2.124
800.4	2.135
800.6	2.124
800.8	2.122
801.0	2.110
801.2	2.055
801.4	2.025
801.6	2.054
801.8	2.101
802.0	2.118
802.2	2.110
802.4	2.054
802.6	1.998
802.8	1.972
803.0	2.009
803.2	2.019
803.4	2.005
803.6	1.994
803.8	1.961
804.0	1.957
804.2	1.985
804.4	1.982
804.6	1.970
804.8	1.938
805.0	1.914
805.2	1.932
805.4	1.941
805.6	1.900
805.8	1.892
806.0	1.850
806.2	1.818
806.4	1.823
806.6	1.870
806.8	1.860
807.0	1.879
807.2	1.830
807.4	1.778
807.6	1.756
807.8	1.772
808.0	1.743
808.2	1.750
808.4	1.773
808.6	1.791
808.8	1.798
809.0	1.765
809.2	1.715
809.4	1.681
809.6	1.705
809.8	1.718
810.0	1.706
810.2	1.688
810.4	1.669
810.6	1.626
810.8	1.629
811.0	1.636
811.2	1.641
811.4	1.658
811.6	1.630
811.8	1.591
812.0	1.602
812.2	1.593
812.4	1.586
812.6	1.596
812.8	1.569
813.0	1.570
813.2	1.568
813.4	1.570
813.6	1.558
813.8	1.536
814.0	1.508
814.2	1.493
814.4	1.466
814.6	1.468
814.8	1.465
815.0	1.481
815.2	1.484
815.4	1.492
815.6	1.495
815.8	1.492
816.0	1.465
816.2	1.490
816.4	1.447
816.6	1.407
816.8	1.389
817.0	1.393
817.2	1.423
817.4	1.460
817.6	1.453
817.8	1.417
818.0	1.378
818.2	1.351
818.4	1.354
818.6	1.361
818.8	1.359
819.0	1.343
819.2	1.305
819.4	1.298
819.6	1.296
819.8	1.301
820.0	1.291
820.2	1.274
820.4	1.251
820.6	1.234
820.8	1.220
821.0	1.198
821.2	1.204
821.4	1.215
821.6	1.246
821.8	1.246
822.0	1.239
822.2	1.221
822.4	1.213
822.6	1.231
822.8	1.247
823.0	1.220
823.2	1.200
823.4	1.182
823.6	1.148
823.8	1.158
824.0	1.154
824.2	1.135
824.4	1.133
824.6	1.122
824.8	1.099
825.0	1.105
825.2	1.088
825.4	1.085
825.6	1.092
825.8	1.084
826.0	1.094
826.2	1.101
826.4	1.060
826.6	1.045
826.8	1.022
827.0	1.009
827.2	1.015
827.4	1.018
827.6	1.009
827.8	1.005
828.0	0.978
828.2	0.979
828.4	0.982
828.6	0.977
828.8	0.978
829.0	0.958
829.2	0.937
829.4	0.915
829.6	0.903
829.8	0.893
830.0	0.887
830.2	0.883
830.4	0.890
830.6	0.872
830.8	0.865
831.0	0.850
831.2	0.829
831.4	0.807
831.6	0.809
831.8	0.795
832.0	0.804
832.2	0.819
832.4	0.823
832.6	0.837
832.8	0.845
833.0	0.834
833.2	0.823
833.4	0.801
833.6	0.781
833.8	0.773
834.0	0.763
834.2	0.762
834.4	0.761
834.6	0.752
834.8	0.749
835.0	0.736
835.2	0.730
835.4	0.738
835.6	0.747
835.8	0.742
836.0	0.717
836.2	0.690
836.4	0.682
836.6	0.693
836.8	0.688
837.0	0.683
837.2	0.677
837.4	0.675
837.6	0.681
837.8	0.685
838.0	0.659
838.2	0.639
838.4	0.612
838.6	0.594
838.8	0.592
839.0	0.603
839.2	0.608
839.4	0.612
839.6	0.603
839.8	0.606
840.0	0.610
840.2	0.606
840.4	0.593
840.6	0.565
840.8	0.556
841.0	0.565
841.2	0.567
841.4	0.572
841.6	0.557
841.8	0.534
842.0	0.535
842.2	0.524
842.4	0.525
842.6	0.536
842.8	0.541
843.0	0.559
843.2	0.559
843.4	0.532
843.6	0.508
843.8	0.486
844.0	0.477
844.2	0.493
844.4	0.486
844.6	0.487
844.8	0.472
845.0	0.461
845.2	0.454
845.4	0.455
845.6	0.453
845.8	0.449
846.0	0.452
846.2	0.448
846.4	0.439
846.6	0.435
846.8	0.436
847.0	0.443
847.2	0.439
847.4	0.444
847.6	0.439
847.8	0.430
848.0	0.414
848.2	0.426
848.4	0.421
848.6	0.428
848.8	0.415
849.0	0.395
849.2	0.361
849.4	0.362
849.6	0.372
849.8	0.374
850.0	0.363
850.2	0.353
850.4	0.343
850.6	0.339
850.8	0.357
851.0	0.373
851.2	0.378
851.4	0.380
851.6	0.372
851.8	0.344
852.0	0.328
852.2	0.324
852.4	0.313
852.6	0.321
852.8	0.325
853.0	0.335
853.2	0.346
853.4	0.349
853.6	0.336
853.8	0.337
854.0	0.337
854.2	0.333
854.4	0.338
854.6	0.330
854.8	0.320
855.0	0.330
855.2	0.334
855.4	0.330
855.6	0.320
855.8	0.315
856.0	0.307
856.2	0.311
856.4	0.305
856.6	0.307
856.8	0.300
857.0	0.293
857.2	0.298
857.4	0.295
857.6	0.290
857.8	0.286
858.0	0.290
858.2	0.283
858.4	0.292
858.6	0.296
858.8	0.291
859.0	0.282
859.2	0.276
859.4	0.282
859.6	0.277
859.8	0.285
860.0	0.285
860.2	0.271
860.4	0.244
860.6	0.260
860.8	0.265
861.0	0.285
861.2	0.291
861.4	0.291
861.6	0.276
861.8	0.290
862.0	0.283
862.2	0.268
862.4	0.252
862.6	0.255
862.8	0.254
863.0	0.275
863.2	0.272
863.4	0.266
863.6	0.267
863.8	0.276
864.0	0.273
864.2	0.285
864.4	0.271
864.6	0.258
864.8	0.260
865.0	0.266
865.2	0.269
865.4	0.273
865.6	0.268
865.8	0.260
866.0	0.260
866.2	0.250
866.4	0.243
866.6	0.241
866.8	0.247
867.0	0.253
867.2	0.264
867.4	0.258
867.6	0.250
867.8	0.248
868.0	0.249
868.2	0.250
868.4	0.259
868.6	0.258
868.8	0.252
869.0	0.246
869.2	0.241
869.4	0.245
869.6	0.257
869.8	0.262
870.0	0.272
870.2	0.267
870.4	0.253
870.6	0.254
870.8	0.253
871.0	0.248
871.2	0.253
871.4	0.246
871.6	0.239
871.8	0.243
872.0	0.243
872.2	0.244
872.4	0.245
872.6	0.248
872.8	0.243
873.0	0.243
873.2	0.242
873.4	0.245
873.6	0.250
873.8	0.257
874.0	0.251
874.2	0.246
874.4	0.239
874.6	0.247
874.8	0.253
875.0	0.257
875.2	0.257
875.4	0.255
875.6	0.246
875.8	0.253
876.0	0.256
876.2	0.258
876.4	0.256
876.6	0.254
876.8	0.255
877.0	0.252
877.2	0.240
877.4	0.236
877.6	0.236
877.8	0.234
878.0	0.238
878.2	0.237
878.4	0.235
878.6	0.244
878.8	0.245
879.0	0.244
879.2	0.242
879.4	0.238
879.6	0.242
879.8	0.240
880.0	0.228
880.2	0.230
880.4	0.235
880.6	0.245
880.8	0.253
881.0	0.260
881.2	0.254
881.4	0.257
881.6	0.256
881.8	0.251
882.0	0.242
882.2	0.242
882.4	0.232
882.6	0.244
882.8	0.254
883.0	0.251
883.2	0.246
883.4	0.244
883.6	0.240
883.8	0.249
884.0	0.247
884.2	0.240
884.4	0.242
884.6	0.250
884.8	0.252
885.0	0.249
885.2	0.235
885.4	0.231
885.6	0.228
885.8	0.228
886.0	0.237
886.2	0.239
886.4	0.242
886.6	0.244
886.8	0.233
887.0	0.232
887.2	0.242
887.4	0.239
887.6	0.244
887.8	0.234
888.0	0.237
888.2	0.241
888.4	0.255
888.6	0.251
888.8	0.253
889.0	0.243
889.2	0.249
889.4	0.247
889.6	0.256
889.8	0.255
890.0	0.252
890.2	0.242
890.4	0.244
890.6	0.242
890.8	0.245
891.0	0.250
891.2	0.241
891.4	0.244
891.6	0.252
891.8	0.255
892.0	0.264
892.2	0.258
892.4	0.247
892.6	0.245
892.8	0.239
893.0	0.232
893.2	0.242
893.4	0.242
893.6	0.252
893.8	0.259
894.0	0.262
894.2	0.248
894.4	0.242
894.6	0.243
894.8	0.250
895.0	0.253
895.2	0.255
895.4	0.252
895.6	0.250
895.8	0.254
896.0	0.254
896.2	0.246
896.4	0.245
896.6	0.249
896.8	0.248
897.0	0.248
897.2	0.234
897.4	0.226
897.6	0.229
897.8	0.237
898.0	0.242
898.2	0.248
898.4	0.248
898.6	0.244
898.8	0.242
899.0	0.235
899.2	0.234
899.4	0.236
899.6	0.249
899.8	0.260
900.0	0.260

