Sample:	'20211010A(EM)
File name:	r-NI-c-dots-CHO 300S2-.FDS
Run date:	'16:36:32, 03/22/2023
Operator:	Administrator
Comment:	'

Instrument
Model:	F-4700 FL Spectrophotometer
Serial number:	2019-001
ROM Version:	5J24010 00

Instrument parameters
Measurement type:	Wavelength scan
Scan mode:	Emission
Data mode:	Fluorescence
EX WL:	530.0 nm
EM  Start WL:	550.0 nm
EM  End WL:	900.0 nm
Scan speed:	1200 nm/min
Delay:	0.0 s
EX Slit:	10.0 nm
EM Slit:	10.0 nm
PMT Voltage:	660 V
Response:	0.002 s
Corrected spectra:	Off
Shutter control:	On

Processing performed
Savitsky-Golay smoothed
Smoothing order:	3
Number of points:	7
Number of times:	1

Peak integration
Integration method:	Rectangular
Sensitivity:	1
Threshold:	1.000

Peaks
No.	Start(nm)	Apex(nm)	End(nm)	Height(Data)	Valley(nm)	Valley(Data)
1	550.0	611.6	612.4	2367	612.4	2318
2	612.4	616.6	617.6	2377	617.6	2365
3	617.6	618.6	619.4	2393	619.4	2379
4	619.4	620.8	762.0	2391	762.0	62.85
5	762.0	762.6	765.6	64.87	765.6	54.95
6	765.6	766.4	773.4	59.24	773.4	41.15
7	773.4	774.4	776.8	43.10	776.8	37.76
8	776.8	778.2	786.0	39.92	786.0	30.14
9	786.0	786.8	791.8	32.73	791.8	26.46
10	791.8	792.6	793.6	27.97	793.6	25.33
11	793.6	794.6	797.8	27.74	797.8	24.28
12	797.8	798.8	801.0	26.18	801.0	23.09
13	801.0	801.4	802.2	24.35	802.2	21.68
14	802.2	803.0	805.2	24.94	805.2	20.98
15	805.2	805.8	807.2	22.78	807.2	19.42
16	807.2	809.0	813.0	22.94	813.0	17.57
17	813.0	815.0	818.0	19.59	818.0	15.99
18	818.0	819.0	821.2	17.67	821.2	13.85
19	821.2	822.6	823.4	16.25	823.4	14.02
20	823.4	824.8	826.2	15.45	826.2	13.74
21	826.2	826.6	829.4	14.91	829.4	11.84
22	829.4	830.6	843.4	13.97	843.4	7.414
23	843.4	844.0	846.0	9.139	846.0	5.934
24	846.0	850.6	856.4	7.395	856.4	4.636
25	856.4	857.4	858.4	6.227	858.4	4.821
26	858.4	859.4	860.8	5.909	860.8	4.672
27	860.8	862.6	865.0	6.282	865.0	4.942
28	865.0	870.0	871.6	6.529	871.6	5.030
29	871.6	872.2	875.2	6.309	875.2	4.071
30	875.2	876.8	880.0	5.964	880.0	4.507
31	880.0	883.4	890.0	6.250	890.0	4.691
32	890.0	891.2	894.6	6.645	894.6	4.772
33	894.6	896.6	898.0	6.040	898.0	4.637

Data points
nm	Data
550.0	306.6
550.2	311.2
550.4	311.4
550.6	309.8
550.8	310.2
551.0	314.2
551.2	319.0
551.4	322.3
551.6	326.6
551.8	328.4
552.0	332.1
552.2	334.3
552.4	336.1
552.6	335.9
552.8	336.4
553.0	339.5
553.2	343.9
553.4	348.1
553.6	353.6
553.8	355.7
554.0	357.2
554.2	359.1
554.4	360.9
554.6	361.6
554.8	365.3
555.0	368.5
555.2	370.5
555.4	374.0
555.6	377.2
555.8	378.0
556.0	382.3
556.2	388.6
556.4	392.2
556.6	396.7
556.8	397.9
557.0	396.6
557.2	402.1
557.4	406.5
557.6	414.3
557.8	419.7
558.0	425.3
558.2	428.2
558.4	435.7
558.6	438.3
558.8	440.7
559.0	440.0
559.2	442.5
559.4	443.6
559.6	448.4
559.8	454.2
560.0	457.0
560.2	461.6
560.4	467.6
560.6	474.4
560.8	478.0
561.0	480.8
561.2	480.9
561.4	484.0
561.6	488.3
561.8	499.8
562.0	505.3
562.2	510.9
562.4	515.4
562.6	516.2
562.8	521.5
563.0	528.1
563.2	532.1
563.4	537.2
563.6	541.3
563.8	541.5
564.0	549.2
564.2	551.1
564.4	562.8
564.6	572.1
564.8	575.4
565.0	580.0
565.2	580.1
565.4	581.6
565.6	592.3
565.8	601.2
566.0	606.7
566.2	616.1
566.4	623.9
566.6	632.5
566.8	637.0
567.0	638.0
567.2	636.5
567.4	641.6
567.6	651.7
567.8	661.4
568.0	672.3
568.2	681.6
568.4	684.0
568.6	691.2
568.8	696.8
569.0	705.3
569.2	708.0
569.4	712.8
569.6	713.3
569.8	719.8
570.0	730.0
570.2	745.0
570.4	757.0
570.6	765.9
570.8	772.9
571.0	778.7
571.2	781.0
571.4	785.4
571.6	802.2
571.8	809.2
572.0	819.2
572.2	824.3
572.4	824.9
572.6	830.2
572.8	848.4
573.0	857.2
573.2	866.7
573.4	869.7
573.6	871.3
573.8	872.2
574.0	881.0
574.2	890.2
574.4	901.1
574.6	919.1
574.8	931.7
575.0	929.0
575.2	928.8
575.4	931.4
575.6	939.0
575.8	955.5
576.0	968.9
576.2	973.5
576.4	979.5
576.6	986.2
576.8	995.8
577.0	1004
577.2	1012
577.4	1020
577.6	1033
577.8	1048
578.0	1063
578.2	1076
578.4	1082
578.6	1087
578.8	1090
579.0	1099
579.2	1108
579.4	1121
579.6	1133
579.8	1143
580.0	1148
580.2	1160
580.4	1167
580.6	1180
580.8	1190
581.0	1196
581.2	1207
581.4	1214
581.6	1224
581.8	1240
582.0	1243
582.2	1246
582.4	1252
582.6	1254
582.8	1267
583.0	1282
583.2	1294
583.4	1311
583.6	1321
583.8	1329
584.0	1341
584.2	1343
584.4	1353
584.6	1364
584.8	1371
585.0	1383
585.2	1395
585.4	1392
585.6	1399
585.8	1406
586.0	1419
586.2	1436
586.4	1450
586.6	1458
586.8	1464
587.0	1472
587.2	1481
587.4	1484
587.6	1484
587.8	1497
588.0	1507
588.2	1522
588.4	1532
588.6	1537
588.8	1540
589.0	1550
589.2	1558
589.4	1573
589.6	1585
589.8	1604
590.0	1620
590.2	1628
590.4	1631
590.6	1643
590.8	1656
591.0	1666
591.2	1669
591.4	1672
591.6	1669
591.8	1673
592.0	1693
592.2	1712
592.4	1727
592.6	1742
592.8	1754
593.0	1750
593.2	1759
593.4	1767
593.6	1774
593.8	1784
594.0	1799
594.2	1808
594.4	1819
594.6	1822
594.8	1821
595.0	1822
595.2	1831
595.4	1840
595.6	1852
595.8	1856
596.0	1865
596.2	1879
596.4	1893
596.6	1894
596.8	1902
597.0	1904
597.2	1925
597.4	1941
597.6	1955
597.8	1965
598.0	1974
598.2	1976
598.4	1990
598.6	1986
598.8	1985
599.0	1995
599.2	2002
599.4	2003
599.6	2014
599.8	2014
600.0	2018
600.2	2031
600.4	2039
600.6	2041
600.8	2053
601.0	2060
601.2	2071
601.4	2091
601.6	2104
601.8	2109
602.0	2109
602.2	2110
602.4	2115
602.6	2120
602.8	2131
603.0	2133
603.2	2133
603.4	2147
603.6	2153
603.8	2159
604.0	2173
604.2	2178
604.4	2177
604.6	2185
604.8	2186
605.0	2194
605.2	2203
605.4	2207
605.6	2211
605.8	2219
606.0	2222
606.2	2226
606.4	2225
606.6	2227
606.8	2237
607.0	2240
607.2	2253
607.4	2264
607.6	2265
607.8	2275
608.0	2270
608.2	2263
608.4	2263
608.6	2263
608.8	2266
609.0	2274
609.2	2282
609.4	2289
609.6	2289
609.8	2292
610.0	2290
610.2	2294
610.4	2313
610.6	2315
610.8	2322
611.0	2333
611.2	2337
611.4	2352
611.6	2367
611.8	2354
612.0	2343
612.2	2331
612.4	2318
612.6	2319
612.8	2329
613.0	2342
613.2	2359
613.4	2361
613.6	2361
613.8	2356
614.0	2353
614.2	2353
614.4	2357
614.6	2367
614.8	2369
615.0	2369
615.2	2366
615.4	2365
615.6	2362
615.8	2374
616.0	2371
616.2	2374
616.4	2365
616.6	2377
616.8	2374
617.0	2373
617.2	2376
617.4	2373
617.6	2365
617.8	2368
618.0	2368
618.2	2375
618.4	2388
618.6	2393
618.8	2392
619.0	2386
619.2	2386
619.4	2379
619.6	2382
619.8	2384
620.0	2381
620.2	2383
620.4	2389
620.6	2383
620.8	2391
621.0	2386
621.2	2384
621.4	2380
621.6	2375
621.8	2372
622.0	2371
622.2	2372
622.4	2369
622.6	2372
622.8	2371
623.0	2373
623.2	2374
623.4	2369
623.6	2356
623.8	2343
624.0	2345
624.2	2348
624.4	2353
624.6	2354
624.8	2351
625.0	2342
625.2	2342
625.4	2341
625.6	2339
625.8	2337
626.0	2339
626.2	2331
626.4	2322
626.6	2316
626.8	2303
627.0	2299
627.2	2310
627.4	2312
627.6	2313
627.8	2306
628.0	2302
628.2	2299
628.4	2296
628.6	2292
628.8	2292
629.0	2286
629.2	2286
629.4	2281
629.6	2275
629.8	2272
630.0	2274
630.2	2269
630.4	2264
630.6	2261
630.8	2249
631.0	2240
631.2	2230
631.4	2227
631.6	2222
631.8	2218
632.0	2213
632.2	2212
632.4	2210
632.6	2205
632.8	2190
633.0	2182
633.2	2179
633.4	2183
633.6	2195
633.8	2192
634.0	2180
634.2	2169
634.4	2152
634.6	2143
634.8	2147
635.0	2144
635.2	2138
635.4	2134
635.6	2129
635.8	2122
636.0	2129
636.2	2123
636.4	2110
636.6	2107
636.8	2103
637.0	2097
637.2	2095
637.4	2087
637.6	2079
637.8	2083
638.0	2079
638.2	2069
638.4	2056
638.6	2038
638.8	2033
639.0	2028
639.2	2022
639.4	2015
639.6	2013
639.8	2005
640.0	2007
640.2	2006
640.4	2003
640.6	1993
640.8	1989
641.0	1974
641.2	1972
641.4	1967
641.6	1963
641.8	1953
642.0	1953
642.2	1947
642.4	1945
642.6	1932
642.8	1926
643.0	1909
643.2	1902
643.4	1900
643.6	1894
643.8	1887
644.0	1883
644.2	1867
644.4	1865
644.6	1857
644.8	1855
645.0	1851
645.2	1841
645.4	1829
645.6	1822
645.8	1819
646.0	1813
646.2	1805
646.4	1795
646.6	1784
646.8	1780
647.0	1783
647.2	1780
647.4	1777
647.6	1770
647.8	1756
648.0	1757
648.2	1754
648.4	1749
648.6	1746
648.8	1739
649.0	1727
649.2	1722
649.4	1708
649.6	1695
649.8	1690
650.0	1682
650.2	1682
650.4	1677
650.6	1668
650.8	1660
651.0	1648
651.2	1632
651.4	1629
651.6	1627
651.8	1627
652.0	1633
652.2	1627
652.4	1615
652.6	1606
652.8	1598
653.0	1590
653.2	1585
653.4	1574
653.6	1559
653.8	1555
654.0	1556
654.2	1560
654.4	1558
654.6	1548
654.8	1531
655.0	1519
655.2	1509
655.4	1510
655.6	1507
655.8	1503
656.0	1494
656.2	1482
656.4	1474
656.6	1468
656.8	1465
657.0	1468
657.2	1457
657.4	1447
657.6	1440
657.8	1437
658.0	1432
658.2	1428
658.4	1414
658.6	1405
658.8	1395
659.0	1390
659.2	1386
659.4	1387
659.6	1386
659.8	1382
660.0	1369
660.2	1354
660.4	1346
660.6	1337
660.8	1333
661.0	1329
661.2	1322
661.4	1321
661.6	1316
661.8	1301
662.0	1293
662.2	1282
662.4	1276
662.6	1279
662.8	1275
663.0	1270
663.2	1257
663.4	1249
663.6	1240
663.8	1241
664.0	1241
664.2	1236
664.4	1224
664.6	1220
664.8	1209
665.0	1210
665.2	1209
665.4	1206
665.6	1198
665.8	1192
666.0	1183
666.2	1175
666.4	1167
666.6	1170
666.8	1166
667.0	1165
667.2	1159
667.4	1150
667.6	1140
667.8	1141
668.0	1130
668.2	1125
668.4	1116
668.6	1104
668.8	1097
669.0	1092
669.2	1085
669.4	1085
669.6	1077
669.8	1073
670.0	1067
670.2	1064
670.4	1065
670.6	1065
670.8	1048
671.0	1037
671.2	1026
671.4	1017
671.6	1015
671.8	1012
672.0	1006
672.2	1004
672.4	998.7
672.6	991.9
672.8	981.3
673.0	977.8
673.2	976.4
673.4	971.6
673.6	964.8
673.8	964.5
674.0	959.0
674.2	958.0
674.4	950.4
674.6	939.9
674.8	932.8
675.0	932.0
675.2	930.6
675.4	926.8
675.6	923.3
675.8	920.6
676.0	914.7
676.2	907.4
676.4	901.0
676.6	893.4
676.8	891.2
677.0	892.1
677.2	887.1
677.4	880.4
677.6	874.8
677.8	859.5
678.0	849.4
678.2	845.9
678.4	843.3
678.6	846.1
678.8	852.1
679.0	846.2
679.2	837.5
679.4	836.8
679.6	827.8
679.8	826.5
680.0	829.5
680.2	821.0
680.4	811.5
680.6	806.8
680.8	799.5
681.0	802.1
681.2	801.2
681.4	788.3
681.6	778.8
681.8	769.6
682.0	769.2
682.2	768.7
682.4	766.4
682.6	760.4
682.8	754.4
683.0	751.1
683.2	749.4
683.4	742.1
683.6	738.3
683.8	733.9
684.0	731.2
684.2	734.2
684.4	732.5
684.6	725.2
684.8	717.9
685.0	705.3
685.2	702.2
685.4	705.0
685.6	709.0
685.8	707.9
686.0	702.1
686.2	690.2
686.4	679.7
686.6	671.0
686.8	671.1
687.0	675.2
687.2	676.1
687.4	670.1
687.6	657.1
687.8	644.6
688.0	647.0
688.2	646.7
688.4	648.2
688.6	644.5
688.8	634.5
689.0	630.0
689.2	632.0
689.4	628.5
689.6	623.2
689.8	618.1
690.0	612.5
690.2	611.3
690.4	608.9
690.6	608.0
690.8	600.8
691.0	596.6
691.2	594.5
691.4	593.0
691.6	592.0
691.8	589.7
692.0	586.3
692.2	581.3
692.4	576.5
692.6	569.8
692.8	569.2
693.0	565.8
693.2	561.6
693.4	557.3
693.6	555.1
693.8	549.9
694.0	551.0
694.2	546.3
694.4	544.0
694.6	541.3
694.8	539.3
695.0	535.3
695.2	535.8
695.4	533.8
695.6	536.2
695.8	537.6
696.0	533.5
696.2	524.3
696.4	517.6
696.6	511.0
696.8	509.6
697.0	512.8
697.2	511.4
697.4	505.6
697.6	503.8
697.8	497.3
698.0	496.9
698.2	495.4
698.4	492.0
698.6	489.2
698.8	486.0
699.0	481.1
699.2	481.5
699.4	477.9
699.6	479.2
699.8	479.1
700.0	474.5
700.2	470.4
700.4	466.9
700.6	455.8
700.8	458.5
701.0	459.7
701.2	457.6
701.4	455.2
701.6	452.4
701.8	445.1
702.0	443.6
702.2	444.4
702.4	445.7
702.6	446.8
702.8	446.9
703.0	444.2
703.2	434.8
703.4	431.4
703.6	430.5
703.8	431.3
704.0	429.5
704.2	426.7
704.4	424.8
704.6	421.7
704.8	415.1
705.0	412.0
705.2	405.3
705.4	404.9
705.6	407.6
705.8	410.2
706.0	406.8
706.2	404.5
706.4	401.4
706.6	399.9
706.8	397.3
707.0	397.0
707.2	392.7
707.4	393.2
707.6	390.8
707.8	386.6
708.0	382.2
708.2	380.0
708.4	377.4
708.6	379.0
708.8	373.6
709.0	369.3
709.2	368.0
709.4	368.0
709.6	370.5
709.8	374.3
710.0	371.7
710.2	368.5
710.4	365.1
710.6	361.4
710.8	357.5
711.0	357.0
711.2	348.4
711.4	343.0
711.6	342.9
711.8	346.7
712.0	346.8
712.2	347.5
712.4	340.6
712.6	336.1
712.8	334.8
713.0	332.2
713.2	329.2
713.4	327.4
713.6	323.9
713.8	321.4
714.0	319.2
714.2	315.4
714.4	314.1
714.6	313.1
714.8	310.8
715.0	309.7
715.2	310.5
715.4	311.1
715.6	313.6
715.8	309.7
716.0	309.0
716.2	305.3
716.4	303.2
716.6	299.4
716.8	298.7
717.0	293.0
717.2	294.1
717.4	292.9
717.6	290.5
717.8	287.0
718.0	287.2
718.2	285.3
718.4	285.8
718.6	282.9
718.8	276.6
719.0	273.2
719.2	272.4
719.4	274.3
719.6	274.9
719.8	271.9
720.0	270.9
720.2	269.6
720.4	265.9
720.6	263.8
720.8	260.8
721.0	256.5
721.2	253.6
721.4	252.3
721.6	251.8
721.8	250.4
722.0	248.9
722.2	244.9
722.4	242.3
722.6	240.0
722.8	240.8
723.0	239.6
723.2	236.0
723.4	233.4
723.6	235.0
723.8	233.9
724.0	234.1
724.2	230.7
724.4	228.8
724.6	226.9
724.8	223.6
725.0	220.4
725.2	220.1
725.4	219.6
725.6	220.6
725.8	219.9
726.0	215.6
726.2	212.3
726.4	212.2
726.6	210.7
726.8	208.3
727.0	206.0
727.2	205.5
727.4	208.5
727.6	209.5
727.8	206.2
728.0	203.7
728.2	200.0
728.4	195.3
728.6	195.1
728.8	193.5
729.0	193.8
729.2	196.7
729.4	198.4
729.6	193.9
729.8	192.3
730.0	190.7
730.2	188.1
730.4	189.0
730.6	184.5
730.8	177.4
731.0	174.2
731.2	174.7
731.4	174.7
731.6	178.6
731.8	177.5
732.0	175.5
732.2	173.8
732.4	173.0
732.6	172.7
732.8	172.7
733.0	168.5
733.2	166.6
733.4	162.8
733.6	163.2
733.8	164.6
734.0	166.6
734.2	163.6
734.4	161.1
734.6	158.0
734.8	156.1
735.0	155.9
735.2	157.0
735.4	156.6
735.6	156.0
735.8	156.6
736.0	153.9
736.2	151.7
736.4	146.8
736.6	141.0
736.8	142.4
737.0	143.1
737.2	143.9
737.4	144.9
737.6	144.0
737.8	141.4
738.0	142.2
738.2	141.7
738.4	140.2
738.6	139.1
738.8	138.4
739.0	137.0
739.2	135.5
739.4	136.5
739.6	133.9
739.8	131.1
740.0	126.8
740.2	126.0
740.4	126.6
740.6	129.7
740.8	128.3
741.0	128.4
741.2	124.8
741.4	125.6
741.6	123.0
741.8	122.5
742.0	120.4
742.2	118.1
742.4	115.1
742.6	116.2
742.8	113.4
743.0	115.3
743.2	117.0
743.4	117.1
743.6	116.3
743.8	114.6
744.0	111.3
744.2	112.0
744.4	113.4
744.6	114.8
744.8	113.6
745.0	110.5
745.2	107.7
745.4	105.5
745.6	105.7
745.8	108.4
746.0	109.1
746.2	107.9
746.4	106.8
746.6	104.7
746.8	103.7
747.0	104.4
747.2	101.8
747.4	98.48
747.6	96.31
747.8	95.66
748.0	98.20
748.2	100.8
748.4	101.0
748.6	99.64
748.8	97.36
749.0	94.39
749.2	95.04
749.4	95.79
749.6	95.55
749.8	95.09
750.0	94.33
750.2	93.00
750.4	92.85
750.6	93.26
750.8	92.19
751.0	91.24
751.2	90.57
751.4	90.12
751.6	89.51
751.8	89.22
752.0	88.30
752.2	88.26
752.4	89.46
752.6	89.42
752.8	88.36
753.0	85.34
753.2	83.53
753.4	82.50
753.6	82.53
753.8	84.73
754.0	84.61
754.2	84.35
754.4	85.30
754.6	83.30
754.8	81.28
755.0	81.94
755.2	79.66
755.4	80.06
755.6	79.94
755.8	77.61
756.0	76.09
756.2	75.32
756.4	74.95
756.6	76.23
756.8	76.52
757.0	75.67
757.2	74.38
757.4	72.83
757.6	73.46
757.8	74.69
758.0	74.82
758.2	73.40
758.4	71.11
758.6	68.26
758.8	69.66
759.0	71.72
759.2	71.11
759.4	69.85
759.6	68.98
759.8	67.23
760.0	67.24
760.2	68.12
760.4	66.98
760.6	66.61
760.8	64.54
761.0	63.48
761.2	62.93
761.4	63.57
761.6	64.50
761.8	64.16
762.0	62.85
762.2	63.73
762.4	64.40
762.6	64.87
762.8	64.27
763.0	61.46
763.2	62.02
763.4	62.71
763.6	61.01
763.8	59.73
764.0	60.22
764.2	59.63
764.4	60.24
764.6	60.11
764.8	57.53
765.0	55.44
765.2	56.89
765.4	56.31
765.6	54.95
765.8	56.18
766.0	57.17
766.2	57.91
766.4	59.24
766.6	57.74
766.8	56.19
767.0	55.55
767.2	54.69
767.4	53.51
767.6	52.19
767.8	50.55
768.0	50.37
768.2	50.07
768.4	50.08
768.6	50.03
768.8	50.32
769.0	50.41
769.2	50.25
769.4	49.14
769.6	48.17
769.8	46.94
770.0	47.35
770.2	47.24
770.4	46.16
770.6	45.20
770.8	45.63
771.0	45.54
771.2	47.02
771.4	47.64
771.6	45.55
771.8	44.38
772.0	42.67
772.2	43.00
772.4	43.74
772.6	44.22
772.8	43.37
773.0	42.99
773.2	41.18
773.4	41.15
773.6	41.38
773.8	41.55
774.0	42.43
774.2	43.07
774.4	43.10
774.6	42.08
774.8	41.70
775.0	41.65
775.2	41.74
775.4	40.95
775.6	40.42
775.8	39.87
776.0	39.63
776.2	39.47
776.4	39.69
776.6	38.66
776.8	37.76
777.0	37.97
777.2	37.80
777.4	37.90
777.6	39.31
777.8	38.98
778.0	39.16
778.2	39.92
778.4	39.85
778.6	39.92
778.8	39.89
779.0	37.86
779.2	36.31
779.4	35.36
779.6	34.87
779.8	34.80
780.0	35.32
780.2	35.11
780.4	35.46
780.6	35.50
780.8	34.08
781.0	33.31
781.2	32.75
781.4	32.64
781.6	33.55
781.8	34.85
782.0	33.89
782.2	33.16
782.4	32.96
782.6	33.18
782.8	32.62
783.0	33.32
783.2	32.10
783.4	31.25
783.6	32.72
783.8	33.59
784.0	33.54
784.2	33.11
784.4	32.43
784.6	31.23
784.8	31.24
785.0	31.31
785.2	31.99
785.4	31.48
785.6	31.71
785.8	30.28
786.0	30.14
786.2	30.71
786.4	31.98
786.6	32.34
786.8	32.73
787.0	31.40
787.2	30.47
787.4	29.92
787.6	29.87
787.8	30.46
788.0	31.37
788.2	31.17
788.4	30.59
788.6	30.53
788.8	29.75
789.0	29.62
789.2	28.57
789.4	28.47
789.6	27.56
789.8	27.69
790.0	28.12
790.2	28.57
790.4	27.82
790.6	27.88
790.8	26.85
791.0	26.83
791.2	26.58
791.4	26.62
791.6	26.47
791.8	26.46
792.0	26.47
792.2	27.89
792.4	27.90
792.6	27.97
792.8	27.44
793.0	26.54
793.2	25.58
793.4	25.97
793.6	25.33
793.8	25.49
794.0	26.71
794.2	27.53
794.4	27.70
794.6	27.74
794.8	26.09
795.0	25.85
795.2	26.79
795.4	26.48
795.6	26.92
795.8	27.39
796.0	26.28
796.2	26.53
796.4	25.89
796.6	24.66
796.8	25.87
797.0	26.91
797.2	27.01
797.4	27.02
797.6	25.58
797.8	24.28
798.0	24.41
798.2	24.52
798.4	24.85
798.6	25.63
798.8	26.18
799.0	25.38
799.2	25.09
799.4	24.94
799.6	24.69
799.8	23.94
800.0	23.75
800.2	23.15
800.4	23.35
800.6	23.33
800.8	23.63
801.0	23.09
801.2	23.42
801.4	24.35
801.6	23.97
801.8	23.54
802.0	22.36
802.2	21.68
802.4	21.86
802.6	22.82
802.8	23.81
803.0	24.94
803.2	23.93
803.4	23.22
803.6	22.85
803.8	22.17
804.0	22.19
804.2	22.84
804.4	22.93
804.6	22.89
804.8	22.57
805.0	21.37
805.2	20.98
805.4	21.46
805.6	21.96
805.8	22.78
806.0	22.69
806.2	22.27
806.4	22.29
806.6	21.72
806.8	20.42
807.0	19.72
807.2	19.42
807.4	19.67
807.6	20.54
807.8	20.91
808.0	19.49
808.2	19.53
808.4	20.08
808.6	20.85
808.8	22.61
809.0	22.94
809.2	21.68
809.4	21.37
809.6	20.28
809.8	19.63
810.0	20.23
810.2	20.44
810.4	20.97
810.6	21.67
810.8	20.46
811.0	19.43
811.2	18.28
811.4	18.41
811.6	18.85
811.8	19.28
812.0	19.28
812.2	19.01
812.4	18.68
812.6	18.80
812.8	17.86
813.0	17.57
813.2	18.26
813.4	17.93
813.6	18.53
813.8	18.84
814.0	18.19
814.2	17.60
814.4	18.04
814.6	18.04
814.8	19.00
815.0	19.59
815.2	18.87
815.4	18.24
815.6	17.67
815.8	17.76
816.0	17.43
816.2	17.36
816.4	16.51
816.6	17.06
816.8	16.82
817.0	17.41
817.2	16.79
817.4	16.69
817.6	16.04
817.8	16.30
818.0	15.99
818.2	16.59
818.4	17.17
818.6	17.51
818.8	17.59
819.0	17.67
819.2	17.58
819.4	16.85
819.6	15.82
819.8	14.93
820.0	14.69
820.2	15.80
820.4	17.33
820.6	16.85
820.8	15.95
821.0	14.66
821.2	13.85
821.4	14.04
821.6	14.34
821.8	14.20
822.0	14.62
822.2	15.03
822.4	15.56
822.6	16.25
822.8	16.14
823.0	15.45
823.2	14.65
823.4	14.02
823.6	14.37
823.8	14.76
824.0	15.19
824.2	15.24
824.4	15.13
824.6	15.30
824.8	15.45
825.0	15.06
825.2	14.91
825.4	14.72
825.6	14.24
825.8	13.91
826.0	13.76
826.2	13.74
826.4	14.14
826.6	14.91
826.8	14.40
827.0	14.26
827.2	14.79
827.4	14.36
827.6	13.91
827.8	13.51
828.0	12.44
828.2	12.22
828.4	13.15
828.6	13.48
828.8	12.95
829.0	12.64
829.2	12.04
829.4	11.84
829.6	12.41
829.8	13.00
830.0	12.52
830.2	12.90
830.4	13.12
830.6	13.97
830.8	13.91
831.0	13.23
831.2	11.41
831.4	11.30
831.6	11.20
831.8	11.70
832.0	11.19
832.2	11.26
832.4	10.90
832.6	11.00
832.8	11.13
833.0	10.92
833.2	10.58
833.4	10.76
833.6	10.97
833.8	11.04
834.0	11.48
834.2	11.27
834.4	10.80
834.6	10.81
834.8	10.30
835.0	10.62
835.2	11.02
835.4	11.22
835.6	10.87
835.8	10.88
836.0	10.45
836.2	10.54
836.4	10.46
836.6	10.93
836.8	10.51
837.0	9.527
837.2	9.228
837.4	9.270
837.6	9.165
837.8	9.792
838.0	10.19
838.2	9.852
838.4	9.564
838.6	9.106
838.8	8.605
839.0	8.619
839.2	9.081
839.4	9.474
839.6	9.342
839.8	8.955
840.0	9.153
840.2	8.698
840.4	8.945
840.6	8.750
840.8	8.407
841.0	8.701
841.2	9.351
841.4	8.734
841.6	8.604
841.8	8.054
842.0	8.005
842.2	8.556
842.4	8.914
842.6	8.609
842.8	8.211
843.0	7.915
843.2	7.485
843.4	7.414
843.6	7.902
843.8	8.436
844.0	9.139
844.2	8.972
844.4	8.841
844.6	8.186
844.8	7.751
845.0	7.694
845.2	7.933
845.4	7.116
845.6	7.005
845.8	6.620
846.0	5.934
846.2	6.232
846.4	6.409
846.6	6.523
846.8	6.773
847.0	6.868
847.2	6.409
847.4	6.605
847.6	6.745
847.8	6.940
848.0	6.828
848.2	6.684
848.4	6.452
848.6	6.506
848.8	6.551
849.0	6.384
849.2	6.227
849.4	6.070
849.6	6.067
849.8	6.136
850.0	6.047
850.2	6.291
850.4	7.062
850.6	7.395
850.8	7.286
851.0	7.019
851.2	6.386
851.4	5.923
851.6	5.869
851.8	6.058
852.0	5.970
852.2	6.036
852.4	6.261
852.6	6.403
852.8	6.627
853.0	6.784
853.2	6.463
853.4	6.112
853.6	6.027
853.8	5.606
854.0	6.065
854.2	6.368
854.4	5.958
854.6	5.971
854.8	6.037
855.0	5.469
855.2	5.339
855.4	5.604
855.6	5.449
855.8	5.663
856.0	5.524
856.2	5.190
856.4	4.636
856.6	4.866
856.8	5.499
857.0	6.069
857.2	6.095
857.4	6.227
857.6	5.820
857.8	5.444
858.0	5.425
858.2	5.301
858.4	4.821
858.6	4.857
858.8	4.947
859.0	4.986
859.2	5.527
859.4	5.909
859.6	5.342
859.8	5.648
860.0	5.672
860.2	5.267
860.4	5.075
860.6	5.118
860.8	4.672
861.0	5.129
861.2	5.431
861.4	5.651
861.6	5.346
861.8	5.369
862.0	5.642
862.2	5.758
862.4	6.267
862.6	6.282
862.8	5.881
863.0	5.953
863.2	6.150
863.4	5.695
863.6	5.643
863.8	5.488
864.0	5.719
864.2	6.097
864.4	5.975
864.6	5.564
864.8	5.465
865.0	4.942
865.2	5.210
865.4	5.053
865.6	5.306
865.8	5.350
866.0	5.827
866.2	5.496
866.4	5.508
866.6	5.169
866.8	5.352
867.0	5.112
867.2	5.237
867.4	5.535
867.6	5.485
867.8	5.587
868.0	5.573
868.2	5.362
868.4	5.254
868.6	5.455
868.8	5.533
869.0	5.527
869.2	5.409
869.4	5.443
869.6	5.828
869.8	6.453
870.0	6.529
870.2	6.213
870.4	5.693
870.6	5.286
870.8	5.285
871.0	5.571
871.2	5.261
871.4	5.159
871.6	5.030
871.8	5.216
872.0	5.682
872.2	6.309
872.4	6.288
872.6	5.835
872.8	5.267
873.0	5.226
873.2	5.210
873.4	5.595
873.6	5.597
873.8	5.226
874.0	5.013
874.2	5.357
874.4	5.651
874.6	5.703
874.8	5.244
875.0	4.410
875.2	4.071
875.4	4.219
875.6	4.903
875.8	5.483
876.0	5.631
876.2	5.650
876.4	5.805
876.6	5.634
876.8	5.964
877.0	5.723
877.2	5.524
877.4	5.573
877.6	5.537
877.8	5.357
878.0	5.679
878.2	5.402
878.4	5.278
878.6	5.243
878.8	5.019
879.0	5.014
879.2	4.682
879.4	4.739
879.6	4.686
879.8	4.550
880.0	4.507
880.2	4.735
880.4	4.907
880.6	5.801
880.8	5.896
881.0	5.441
881.2	4.887
881.4	4.571
881.6	5.071
881.8	5.783
882.0	5.940
882.2	5.723
882.4	5.307
882.6	5.239
882.8	5.558
883.0	6.186
883.2	6.187
883.4	6.250
883.6	5.864
883.8	5.200
884.0	5.004
884.2	5.171
884.4	4.920
884.6	5.364
884.8	5.641
885.0	5.386
885.2	5.544
885.4	5.760
885.6	5.437
885.8	5.588
886.0	5.687
886.2	5.372
886.4	5.826
886.6	5.907
886.8	5.755
887.0	5.546
887.2	5.194
887.4	4.620
887.6	4.901
887.8	4.722
888.0	5.133
888.2	5.269
888.4	5.118
888.6	5.000
888.8	4.828
889.0	4.919
889.2	5.236
889.4	5.223
889.6	4.880
889.8	4.926
890.0	4.691
890.2	4.863
890.4	4.991
890.6	5.112
890.8	5.847
891.0	6.237
891.2	6.645
891.4	6.581
891.6	5.920
891.8	5.484
892.0	5.483
892.2	5.183
892.4	5.257
892.6	5.253
892.8	5.049
893.0	5.236
893.2	5.329
893.4	5.479
893.6	5.676
893.8	5.796
894.0	5.802
894.2	5.460
894.4	5.087
894.6	4.772
894.8	4.857
895.0	5.374
895.2	5.801
895.4	5.990
895.6	5.624
895.8	5.336
896.0	5.168
896.2	5.687
896.4	5.922
896.6	6.040
896.8	5.270
897.0	5.414
897.2	5.266
897.4	5.296
897.6	5.392
897.8	5.007
898.0	4.637
898.2	5.159
898.4	5.491
898.6	5.920
898.8	6.392
899.0	6.284
899.2	5.925
899.4	5.666
899.6	5.444
899.8	5.500
900.0	6.002

