Sample:	'20211010A(EM)
File name:	r-NI-c-dots-CHO 100S2-.FDS
Run date:	'21:04:05, 03/22/2023
Operator:	Administrator
Comment:	'

Instrument
Model:	F-4700 FL Spectrophotometer
Serial number:	2019-001
ROM Version:	5J24010 00

Instrument parameters
Measurement type:	Wavelength scan
Scan mode:	Emission
Data mode:	Fluorescence
EX WL:	530.0 nm
EM  Start WL:	550.0 nm
EM  End WL:	900.0 nm
Scan speed:	1200 nm/min
Delay:	0.0 s
EX Slit:	10.0 nm
EM Slit:	10.0 nm
PMT Voltage:	660 V
Response:	0.002 s
Corrected spectra:	Off
Shutter control:	On

Processing performed
Savitsky-Golay smoothed
Smoothing order:	3
Number of points:	7
Number of times:	1

Peak integration
Integration method:	Rectangular
Sensitivity:	1
Threshold:	1.000

Peaks
No.	Start(nm)	Apex(nm)	End(nm)	Height(Data)	Valley(nm)	Valley(Data)
1	550.0	617.8	619.2	2055	619.2	2039
2	619.2	620.2	622.2	2053	622.2	2026
3	622.2	623.2	624.6	2052	624.6	2010
4	624.6	625.0	747.0	2021	747.0	92.09
5	747.0	748.0	752.6	95.71	752.6	77.13
6	752.6	753.2	759.0	81.30	759.0	62.21
7	759.0	759.8	761.6	66.26	761.6	56.79
8	761.6	762.8	767.0	60.22	767.0	47.41
9	767.0	768.0	770.0	48.61	770.0	42.69
10	770.0	771.4	773.8	45.31	773.8	38.68
11	773.8	774.6	782.6	40.00	782.6	29.01
12	782.6	783.4	787.6	32.87	787.6	27.35
13	787.6	788.2	789.4	29.42	789.4	26.36
14	789.4	791.0	792.2	27.92	792.2	25.06
15	792.2	792.8	793.8	27.40	793.8	23.66
16	793.8	794.6	798.0	25.89	798.0	20.93
17	798.0	800.2	802.8	23.73	802.8	20.35
18	802.8	803.2	805.4	21.93	805.4	20.27
19	805.4	807.0	807.8	22.50	807.8	18.95
20	807.8	808.8	816.0	20.11	816.0	16.81
21	816.0	816.8	817.4	17.86	817.4	16.31
22	817.4	818.2	819.4	18.48	819.4	15.85
23	819.4	820.0	821.8	18.10	821.8	13.51
24	821.8	822.4	825.0	16.90	825.0	13.14
25	825.0	825.8	826.2	15.01	826.2	13.81
26	826.2	827.8	830.8	15.13	830.8	11.43
27	830.8	831.4	832.2	13.16	832.2	11.98
28	832.2	833.8	841.6	13.21	841.6	7.575
29	841.6	842.6	843.4	9.337	843.4	7.454
30	843.4	844.2	850.2	8.755	850.2	6.230
31	850.2	852.6	854.6	7.947	854.6	5.207
32	854.6	858.0	862.4	7.321	862.4	5.647
33	862.4	864.0	865.6	6.836	865.6	5.730
34	865.6	875.6	877.2	7.419	877.2	6.111
35	877.2	878.0	878.6	7.266	878.6	6.205
36	878.6	880.2	881.2	7.503	881.2	6.234
37	881.2	882.2	886.0	7.517	886.0	5.770
38	886.0	890.0	891.4	7.408	891.4	6.085
39	891.4	897.6	898.2	7.124	898.2	5.900

Data points
nm	Data
550.0	228.6
550.2	229.6
550.4	232.2
550.6	235.5
550.8	238.7
551.0	239.1
551.2	239.0
551.4	236.9
551.6	239.3
551.8	240.5
552.0	245.3
552.2	249.4
552.4	252.0
552.6	248.8
552.8	247.2
553.0	246.2
553.2	248.5
553.4	253.4
553.6	260.4
553.8	262.9
554.0	265.2
554.2	267.8
554.4	268.4
554.6	269.7
554.8	274.4
555.0	277.3
555.2	280.5
555.4	282.8
555.6	284.8
555.8	284.0
556.0	284.2
556.2	288.3
556.4	294.5
556.6	300.3
556.8	305.9
557.0	306.6
557.2	304.7
557.4	303.9
557.6	305.9
557.8	308.5
558.0	312.1
558.2	317.0
558.4	319.4
558.6	324.0
558.8	330.0
559.0	337.5
559.2	341.5
559.4	345.8
559.6	344.4
559.8	344.9
560.0	342.8
560.2	346.1
560.4	344.0
560.6	348.4
560.8	350.8
561.0	359.0
561.2	364.5
561.4	371.0
561.6	372.3
561.8	377.7
562.0	382.8
562.2	388.9
562.4	392.5
562.6	394.7
562.8	395.5
563.0	396.4
563.2	401.1
563.4	409.9
563.6	417.5
563.8	422.6
564.0	424.2
564.2	425.8
564.4	426.9
564.6	433.4
564.8	441.4
565.0	445.4
565.2	449.4
565.4	454.5
565.6	453.7
565.8	457.9
566.0	467.5
566.2	472.1
566.4	477.6
566.6	481.5
566.8	485.3
567.0	486.7
567.2	492.8
567.4	499.5
567.6	503.1
567.8	510.0
568.0	517.7
568.2	521.7
568.4	528.2
568.6	536.9
568.8	539.3
569.0	544.5
569.2	548.9
569.4	557.8
569.6	562.2
569.8	567.0
570.0	573.7
570.2	578.8
570.4	582.1
570.6	589.1
570.8	590.3
571.0	594.5
571.2	605.0
571.4	614.7
571.6	622.2
571.8	627.5
572.0	633.3
572.2	641.7
572.4	647.2
572.6	655.5
572.8	659.8
573.0	666.0
573.2	674.4
573.4	683.2
573.6	685.1
573.8	693.7
574.0	696.3
574.2	706.1
574.4	713.9
574.6	724.3
574.8	727.6
575.0	736.2
575.2	741.1
575.4	747.6
575.6	751.9
575.8	759.4
576.0	759.3
576.2	769.7
576.4	782.7
576.6	789.1
576.8	794.9
577.0	802.3
577.2	804.4
577.4	817.4
577.6	825.2
577.8	828.2
578.0	836.0
578.2	843.8
578.4	853.3
578.6	863.4
578.8	869.2
579.0	873.0
579.2	876.4
579.4	882.6
579.6	896.9
579.8	908.1
580.0	921.3
580.2	930.2
580.4	934.8
580.6	936.3
580.8	942.9
581.0	948.2
581.2	960.0
581.4	972.6
581.6	986.0
581.8	992.4
582.0	995.6
582.2	994.4
582.4	1004
582.6	1014
582.8	1024
583.0	1034
583.2	1038
583.4	1044
583.6	1058
583.8	1066
584.0	1073
584.2	1084
584.4	1090
584.6	1098
584.8	1104
585.0	1114
585.2	1121
585.4	1127
585.6	1135
585.8	1137
586.0	1142
586.2	1157
586.4	1171
586.6	1180
586.8	1195
587.0	1198
587.2	1201
587.4	1208
587.6	1213
587.8	1217
588.0	1225
588.2	1230
588.4	1239
588.6	1254
588.8	1264
589.0	1277
589.2	1285
589.4	1296
589.6	1309
589.8	1321
590.0	1332
590.2	1337
590.4	1341
590.6	1346
590.8	1351
591.0	1363
591.2	1372
591.4	1374
591.6	1382
591.8	1389
592.0	1393
592.2	1405
592.4	1416
592.6	1424
592.8	1432
593.0	1439
593.2	1446
593.4	1448
593.6	1453
593.8	1458
594.0	1459
594.2	1469
594.4	1490
594.6	1497
594.8	1503
595.0	1511
595.2	1522
595.4	1534
595.6	1544
595.8	1541
596.0	1543
596.2	1552
596.4	1570
596.6	1586
596.8	1591
597.0	1596
597.2	1602
597.4	1612
597.6	1621
597.8	1625
598.0	1629
598.2	1631
598.4	1640
598.6	1650
598.8	1658
599.0	1668
599.2	1679
599.4	1681
599.6	1684
599.8	1692
600.0	1702
600.2	1712
600.4	1714
600.6	1715
600.8	1711
601.0	1724
601.2	1736
601.4	1744
601.6	1748
601.8	1762
602.0	1759
602.2	1765
602.4	1767
602.6	1775
602.8	1787
603.0	1802
603.2	1802
603.4	1807
603.6	1805
603.8	1812
604.0	1819
604.2	1824
604.4	1827
604.6	1834
604.8	1836
605.0	1845
605.2	1851
605.4	1859
605.6	1872
605.8	1884
606.0	1886
606.2	1883
606.4	1877
606.6	1877
606.8	1889
607.0	1905
607.2	1917
607.4	1928
607.6	1918
607.8	1915
608.0	1912
608.2	1919
608.4	1923
608.6	1936
608.8	1932
609.0	1935
609.2	1934
609.4	1950
609.6	1961
609.8	1964
610.0	1968
610.2	1960
610.4	1959
610.6	1967
610.8	1985
611.0	1987
611.2	1989
611.4	1979
611.6	1974
611.8	1979
612.0	1993
612.2	2000
612.4	2006
612.6	2006
612.8	1998
613.0	2005
613.2	2004
613.4	2004
613.6	2006
613.8	2020
614.0	2018
614.2	2024
614.4	2022
614.6	2013
614.8	2012
615.0	2020
615.2	2018
615.4	2024
615.6	2030
615.8	2033
616.0	2040
616.2	2042
616.4	2043
616.6	2048
616.8	2050
617.0	2046
617.2	2052
617.4	2051
617.6	2052
617.8	2055
618.0	2045
618.2	2040
618.4	2040
618.6	2041
618.8	2043
619.0	2049
619.2	2039
619.4	2046
619.6	2042
619.8	2046
620.0	2045
620.2	2053
620.4	2045
620.6	2045
620.8	2035
621.0	2034
621.2	2042
621.4	2047
621.6	2041
621.8	2032
622.0	2029
622.2	2026
622.4	2036
622.6	2038
622.8	2039
623.0	2042
623.2	2052
623.4	2040
623.6	2037
623.8	2029
624.0	2018
624.2	2013
624.4	2013
624.6	2010
624.8	2018
625.0	2021
625.2	2021
625.4	2019
625.6	2016
625.8	2013
626.0	2006
626.2	2008
626.4	2000
626.6	2001
626.8	1999
627.0	2002
627.2	1996
627.4	2002
627.6	2003
627.8	1998
628.0	1994
628.2	1986
628.4	1979
628.6	1977
628.8	1981
629.0	1974
629.2	1981
629.4	1972
629.6	1966
629.8	1963
630.0	1962
630.2	1956
630.4	1955
630.6	1952
630.8	1944
631.0	1942
631.2	1947
631.4	1939
631.6	1941
631.8	1941
632.0	1937
632.2	1930
632.4	1926
632.6	1911
632.8	1906
633.0	1900
633.2	1898
633.4	1902
633.6	1905
633.8	1897
634.0	1882
634.2	1875
634.4	1869
634.6	1870
634.8	1873
635.0	1865
635.2	1862
635.4	1856
635.6	1851
635.8	1847
636.0	1844
636.2	1839
636.4	1841
636.6	1839
636.8	1836
637.0	1835
637.2	1822
637.4	1810
637.6	1799
637.8	1797
638.0	1796
638.2	1801
638.4	1790
638.6	1777
638.8	1769
639.0	1769
639.2	1764
639.4	1761
639.6	1753
639.8	1745
640.0	1740
640.2	1742
640.4	1741
640.6	1729
640.8	1713
641.0	1705
641.2	1694
641.4	1697
641.6	1704
641.8	1695
642.0	1695
642.2	1695
642.4	1690
642.6	1687
642.8	1681
643.0	1660
643.2	1650
643.4	1638
643.6	1641
643.8	1643
644.0	1651
644.2	1640
644.4	1634
644.6	1624
644.8	1617
645.0	1614
645.2	1613
645.4	1606
645.6	1600
645.8	1588
646.0	1570
646.2	1566
646.4	1561
646.6	1561
646.8	1559
647.0	1558
647.2	1545
647.4	1543
647.6	1533
647.8	1524
648.0	1523
648.2	1516
648.4	1511
648.6	1504
648.8	1495
649.0	1490
649.2	1496
649.4	1487
649.6	1481
649.8	1472
650.0	1468
650.2	1463
650.4	1463
650.6	1450
650.8	1440
651.0	1439
651.2	1439
651.4	1428
651.6	1418
651.8	1405
652.0	1392
652.2	1393
652.4	1394
652.6	1388
652.8	1388
653.0	1381
653.2	1373
653.4	1373
653.6	1375
653.8	1367
654.0	1364
654.2	1354
654.4	1348
654.6	1340
654.8	1337
655.0	1328
655.2	1325
655.4	1324
655.6	1319
655.8	1314
656.0	1310
656.2	1303
656.4	1294
656.6	1287
656.8	1278
657.0	1274
657.2	1271
657.4	1264
657.6	1263
657.8	1255
658.0	1249
658.2	1241
658.4	1233
658.6	1225
658.8	1228
659.0	1220
659.2	1218
659.4	1208
659.6	1203
659.8	1193
660.0	1195
660.2	1187
660.4	1183
660.6	1176
660.8	1176
661.0	1168
661.2	1165
661.4	1156
661.6	1150
661.8	1148
662.0	1146
662.2	1142
662.4	1133
662.6	1117
662.8	1108
663.0	1102
663.2	1099
663.4	1104
663.6	1102
663.8	1091
664.0	1088
664.2	1084
664.4	1078
664.6	1075
664.8	1069
665.0	1060
665.2	1057
665.4	1053
665.6	1049
665.8	1049
666.0	1049
666.2	1041
666.4	1031
666.6	1022
666.8	1012
667.0	1013
667.2	1008
667.4	1004
667.6	996.1
667.8	993.2
668.0	988.3
668.2	985.4
668.4	972.1
668.6	966.4
668.8	959.7
669.0	958.6
669.2	964.4
669.4	964.5
669.6	958.1
669.8	946.8
670.0	929.1
670.2	918.0
670.4	914.3
670.6	915.5
670.8	916.8
671.0	911.0
671.2	902.6
671.4	902.1
671.6	896.6
671.8	893.3
672.0	892.3
672.2	885.4
672.4	883.5
672.6	882.6
672.8	876.4
673.0	870.0
673.2	868.6
673.4	859.1
673.6	853.6
673.8	846.8
674.0	837.5
674.2	836.5
674.4	831.0
674.6	826.2
674.8	823.0
675.0	821.6
675.2	816.2
675.4	817.7
675.6	809.1
675.8	804.4
676.0	798.6
676.2	797.3
676.4	793.8
676.6	791.0
676.8	783.6
677.0	775.1
677.2	775.4
677.4	773.5
677.6	773.4
677.8	770.8
678.0	764.0
678.2	754.6
678.4	751.4
678.6	745.2
678.8	738.7
679.0	729.4
679.2	729.4
679.4	725.3
679.6	722.7
679.8	723.2
680.0	714.9
680.2	709.0
680.4	711.6
680.6	707.3
680.8	705.3
681.0	705.9
681.2	704.8
681.4	702.2
681.6	697.0
681.8	690.1
682.0	680.2
682.2	673.5
682.4	671.6
682.6	667.2
682.8	665.5
683.0	667.2
683.2	664.3
683.4	663.1
683.6	663.5
683.8	660.9
684.0	653.0
684.2	646.8
684.4	637.1
684.6	631.9
684.8	633.5
685.0	632.1
685.2	626.0
685.4	620.7
685.6	611.4
685.8	606.5
686.0	604.6
686.2	603.6
686.4	601.2
686.6	597.2
686.8	594.4
687.0	593.1
687.2	590.4
687.4	589.0
687.6	591.4
687.8	589.5
688.0	585.8
688.2	579.1
688.4	567.5
688.6	561.8
688.8	560.6
689.0	558.2
689.2	559.7
689.4	558.7
689.6	551.3
689.8	545.1
690.0	532.1
690.2	528.9
690.4	533.8
690.6	540.8
690.8	542.1
691.0	537.7
691.2	529.4
691.4	525.6
691.6	519.9
691.8	518.1
692.0	512.2
692.2	509.0
692.4	507.2
692.6	507.3
692.8	507.1
693.0	508.9
693.2	506.3
693.4	503.8
693.6	495.9
693.8	486.8
694.0	481.1
694.2	480.5
694.4	484.3
694.6	487.3
694.8	489.5
695.0	484.3
695.2	476.6
695.4	470.0
695.6	465.4
695.8	461.1
696.0	458.5
696.2	457.6
696.4	456.9
696.6	453.1
696.8	450.9
697.0	453.7
697.2	452.7
697.4	455.7
697.6	453.0
697.8	446.9
698.0	443.2
698.2	442.3
698.4	436.6
698.6	434.8
698.8	430.0
699.0	428.4
699.2	427.4
699.4	426.4
699.6	426.6
699.8	423.7
700.0	420.4
700.2	416.4
700.4	411.6
700.6	405.5
700.8	404.5
701.0	402.8
701.2	403.2
701.4	404.0
701.6	404.7
701.8	400.0
702.0	396.7
702.2	395.8
702.4	390.6
702.6	390.0
702.8	393.8
703.0	395.0
703.2	395.0
703.4	393.3
703.6	384.1
703.8	378.5
704.0	375.6
704.2	374.1
704.4	375.5
704.6	379.1
704.8	379.5
705.0	374.6
705.2	370.0
705.4	362.9
705.6	361.6
705.8	365.1
706.0	363.9
706.2	363.1
706.4	361.2
706.6	355.4
706.8	352.1
707.0	349.2
707.2	344.1
707.4	343.7
707.6	341.5
707.8	340.4
708.0	338.7
708.2	337.7
708.4	339.7
708.6	340.6
708.8	339.7
709.0	334.0
709.2	331.0
709.4	326.0
709.6	322.4
709.8	322.9
710.0	320.5
710.2	316.3
710.4	317.0
710.6	313.5
710.8	311.2
711.0	312.6
711.2	310.4
711.4	308.8
711.6	309.5
711.8	308.8
712.0	307.0
712.2	305.9
712.4	302.1
712.6	302.4
712.8	303.3
713.0	303.7
713.2	299.8
713.4	296.1
713.6	289.3
713.8	289.5
714.0	288.7
714.2	290.5
714.4	288.1
714.6	283.9
714.8	281.3
715.0	277.2
715.2	275.9
715.4	275.9
715.6	272.8
715.8	271.0
716.0	272.8
716.2	267.1
716.4	265.2
716.6	263.3
716.8	260.6
717.0	259.8
717.2	259.4
717.4	258.1
717.6	258.9
717.8	259.5
718.0	260.1
718.2	254.5
718.4	251.9
718.6	250.3
718.8	248.7
719.0	249.2
719.2	247.6
719.4	243.7
719.6	242.9
719.8	240.7
720.0	237.2
720.2	234.9
720.4	234.1
720.6	232.9
720.8	233.1
721.0	233.3
721.2	231.7
721.4	229.8
721.6	228.1
721.8	223.0
722.0	219.4
722.2	217.6
722.4	217.7
722.6	217.8
722.8	218.1
723.0	218.1
723.2	215.8
723.4	212.0
723.6	209.0
723.8	205.4
724.0	205.5
724.2	207.3
724.4	205.9
724.6	203.4
724.8	199.7
725.0	200.0
725.2	199.6
725.4	201.3
725.6	202.1
725.8	199.4
726.0	194.2
726.2	193.5
726.4	190.9
726.6	191.0
726.8	190.7
727.0	190.2
727.2	190.6
727.4	187.5
727.6	185.5
727.8	181.4
728.0	174.8
728.2	176.4
728.4	182.0
728.6	182.4
728.8	180.6
729.0	175.8
729.2	170.3
729.4	168.0
729.6	169.7
729.8	169.2
730.0	167.3
730.2	167.2
730.4	166.9
730.6	163.5
730.8	160.7
731.0	156.7
731.2	154.8
731.4	158.5
731.6	160.1
731.8	159.6
732.0	158.0
732.2	156.1
732.4	154.2
732.6	155.1
732.8	152.8
733.0	149.7
733.2	145.9
733.4	143.7
733.6	143.7
733.8	145.9
734.0	146.8
734.2	147.8
734.4	145.7
734.6	142.8
734.8	141.1
735.0	138.7
735.2	136.4
735.4	138.8
735.6	138.5
735.8	139.9
736.0	139.9
736.2	136.8
736.4	133.8
736.6	133.8
736.8	131.5
737.0	128.8
737.2	127.5
737.4	127.5
737.6	125.5
737.8	125.5
738.0	126.2
738.2	123.6
738.4	123.1
738.6	124.3
738.8	122.8
739.0	121.3
739.2	119.7
739.4	117.8
739.6	116.0
739.8	118.6
740.0	119.1
740.2	120.2
740.4	118.1
740.6	116.3
740.8	114.7
741.0	113.4
741.2	109.7
741.4	111.3
741.6	112.7
741.8	113.3
742.0	114.7
742.2	113.1
742.4	109.6
742.6	109.4
742.8	109.6
743.0	107.9
743.2	106.8
743.4	105.7
743.6	105.3
743.8	105.2
744.0	105.1
744.2	103.2
744.4	102.3
744.6	101.7
744.8	101.7
745.0	101.0
745.2	99.82
745.4	99.39
745.6	100.3
745.8	99.52
746.0	99.95
746.2	99.22
746.4	97.49
746.6	95.86
746.8	93.84
747.0	92.09
747.2	92.52
747.4	93.58
747.6	95.48
747.8	95.04
748.0	95.71
748.2	95.05
748.4	94.21
748.6	93.15
748.8	92.05
749.0	90.90
749.2	90.95
749.4	89.05
749.6	88.97
749.8	88.02
750.0	87.00
750.2	86.53
750.4	86.42
750.6	86.32
750.8	86.77
751.0	85.87
751.2	85.76
751.4	84.58
751.6	84.67
751.8	83.96
752.0	81.50
752.2	78.45
752.4	78.83
752.6	77.13
752.8	78.70
753.0	80.46
753.2	81.30
753.4	80.37
753.6	80.48
753.8	77.31
754.0	77.25
754.2	78.18
754.4	78.13
754.6	77.36
754.8	75.88
755.0	72.86
755.2	71.90
755.4	72.42
755.6	71.26
755.8	72.50
756.0	72.55
756.2	71.50
756.4	71.06
756.6	70.37
756.8	68.06
757.0	67.74
757.2	68.36
757.4	69.05
757.6	68.74
757.8	67.36
758.0	66.53
758.2	65.51
758.4	65.56
758.6	65.23
758.8	63.21
759.0	62.21
759.2	63.81
759.4	65.59
759.6	66.21
759.8	66.26
760.0	63.31
760.2	60.02
760.4	58.00
760.6	57.82
760.8	57.46
761.0	58.97
761.2	59.19
761.4	57.72
761.6	56.79
761.8	57.41
762.0	57.93
762.2	59.37
762.4	59.86
762.6	59.86
762.8	60.22
763.0	59.90
763.2	59.29
763.4	57.56
763.6	56.21
763.8	55.57
764.0	56.17
764.2	54.71
764.4	54.42
764.6	52.86
764.8	52.32
765.0	51.86
765.2	52.62
765.4	50.23
765.6	50.14
765.8	50.58
766.0	51.13
766.2	51.90
766.4	51.31
766.6	48.86
766.8	47.96
767.0	47.41
767.2	47.91
767.4	47.56
767.6	47.75
767.8	48.30
768.0	48.61
768.2	48.56
768.4	48.31
768.6	47.22
768.8	46.10
769.0	46.03
769.2	44.84
769.4	43.74
769.6	43.54
769.8	43.70
770.0	42.69
770.2	43.51
770.4	43.18
770.6	43.14
770.8	43.92
771.0	45.09
771.2	44.78
771.4	45.31
771.6	44.03
771.8	43.14
772.0	41.01
772.2	41.39
772.4	40.90
772.6	41.44
772.8	40.31
773.0	40.88
773.2	39.84
773.4	39.97
773.6	39.75
773.8	38.68
774.0	38.81
774.2	38.94
774.4	39.34
774.6	40.00
774.8	39.94
775.0	38.86
775.2	39.51
775.4	38.41
775.6	38.89
775.8	39.13
776.0	38.88
776.2	39.95
776.4	39.35
776.6	38.08
776.8	37.01
777.0	36.20
777.2	35.81
777.4	36.44
777.6	35.84
777.8	35.24
778.0	34.52
778.2	34.41
778.4	34.44
778.6	34.79
778.8	35.56
779.0	35.18
779.2	35.67
779.4	34.78
779.6	33.49
779.8	33.01
780.0	32.41
780.2	32.59
780.4	33.67
780.6	33.60
780.8	32.39
781.0	30.99
781.2	30.54
781.4	30.47
781.6	31.85
781.8	33.08
782.0	32.75
782.2	30.96
782.4	30.08
782.6	29.01
782.8	29.75
783.0	31.58
783.2	32.82
783.4	32.87
783.6	32.10
783.8	31.14
784.0	29.69
784.2	29.95
784.4	30.69
784.6	30.86
784.8	30.80
785.0	30.27
785.2	29.88
785.4	29.90
785.6	29.58
785.8	28.76
786.0	28.00
786.2	27.60
786.4	27.68
786.6	28.15
786.8	28.11
787.0	28.19
787.2	27.40
787.4	27.52
787.6	27.35
787.8	28.29
788.0	29.08
788.2	29.42
788.4	29.26
788.6	28.25
788.8	26.83
789.0	26.65
789.2	26.37
789.4	26.36
789.6	27.25
789.8	27.40
790.0	27.53
790.2	27.77
790.4	27.36
790.6	27.02
790.8	27.52
791.0	27.92
791.2	27.83
791.4	27.62
791.6	27.05
791.8	26.39
792.0	25.28
792.2	25.06
792.4	25.63
792.6	26.18
792.8	27.40
793.0	27.15
793.2	25.69
793.4	24.89
793.6	24.27
793.8	23.66
794.0	24.43
794.2	24.74
794.4	25.62
794.6	25.89
794.8	24.56
795.0	24.30
795.2	23.71
795.4	23.73
795.6	24.01
795.8	24.15
796.0	24.31
796.2	24.22
796.4	23.94
796.6	23.50
796.8	23.51
797.0	23.79
797.2	24.47
797.4	23.24
797.6	23.03
797.8	21.24
798.0	20.93
798.2	21.50
798.4	22.02
798.6	21.79
798.8	22.93
799.0	22.57
799.2	22.85
799.4	22.93
799.6	22.84
799.8	22.65
800.0	23.32
800.2	23.73
800.4	23.55
800.6	22.63
800.8	22.74
801.0	22.61
801.2	22.56
801.4	22.01
801.6	21.83
801.8	22.00
802.0	23.13
802.2	22.78
802.4	21.61
802.6	20.47
802.8	20.35
803.0	21.10
803.2	21.93
803.4	21.65
803.6	21.85
803.8	21.67
804.0	21.66
804.2	21.78
804.4	21.62
804.6	21.00
804.8	21.77
805.0	20.77
805.2	20.54
805.4	20.27
805.6	20.37
805.8	20.82
806.0	21.08
806.2	20.44
806.4	20.35
806.6	20.87
806.8	21.65
807.0	22.50
807.2	22.31
807.4	21.37
807.6	19.80
807.8	18.95
808.0	19.22
808.2	19.16
808.4	19.84
808.6	20.13
808.8	20.11
809.0	19.45
809.2	19.03
809.4	19.23
809.6	19.96
809.8	19.38
810.0	19.74
810.2	19.75
810.4	18.86
810.6	18.80
810.8	19.36
811.0	18.13
811.2	18.41
811.4	19.47
811.6	19.39
811.8	18.95
812.0	19.12
812.2	19.00
812.4	18.27
812.6	18.61
812.8	18.40
813.0	18.66
813.2	18.73
813.4	19.17
813.6	19.24
813.8	18.76
814.0	18.49
814.2	17.94
814.4	17.29
814.6	16.60
814.8	17.10
815.0	16.88
815.2	17.45
815.4	17.36
815.6	17.30
815.8	16.83
816.0	16.81
816.2	17.12
816.4	17.44
816.6	17.68
816.8	17.86
817.0	17.73
817.2	17.07
817.4	16.31
817.6	16.70
817.8	17.26
818.0	18.17
818.2	18.48
818.4	18.03
818.6	16.96
818.8	16.90
819.0	16.53
819.2	16.24
819.4	15.85
819.6	16.73
819.8	17.56
820.0	18.10
820.2	17.44
820.4	16.76
820.6	15.61
820.8	15.80
821.0	16.19
821.2	15.81
821.4	14.86
821.6	14.15
821.8	13.51
822.0	13.80
822.2	15.86
822.4	16.90
822.6	16.83
822.8	16.17
823.0	15.80
823.2	15.83
823.4	16.63
823.6	15.60
823.8	14.50
824.0	13.76
824.2	13.58
824.4	13.67
824.6	14.07
824.8	13.22
825.0	13.14
825.2	14.00
825.4	14.38
825.6	14.71
825.8	15.01
826.0	14.51
826.2	13.81
826.4	14.33
826.6	14.73
826.8	14.62
827.0	14.17
827.2	14.05
827.4	13.99
827.6	14.56
827.8	15.13
828.0	14.75
828.2	13.77
828.4	12.43
828.6	12.22
828.8	12.76
829.0	12.70
829.2	12.52
829.4	12.18
829.6	11.50
829.8	11.68
830.0	12.82
830.2	12.67
830.4	12.05
830.6	11.66
830.8	11.43
831.0	11.52
831.2	12.71
831.4	13.16
831.6	12.98
831.8	12.57
832.0	12.15
832.2	11.98
832.4	12.18
832.6	12.45
832.8	12.21
833.0	12.38
833.2	12.25
833.4	12.34
833.6	12.63
833.8	13.21
834.0	13.08
834.2	12.27
834.4	11.13
834.6	10.42
834.8	10.28
835.0	10.36
835.2	10.70
835.4	10.34
835.6	10.27
835.8	9.993
836.0	10.23
836.2	9.884
836.4	10.11
836.6	10.22
836.8	10.16
837.0	10.11
837.2	9.997
837.4	10.13
837.6	10.44
837.8	10.62
838.0	10.28
838.2	10.18
838.4	9.749
838.6	9.581
838.8	9.673
839.0	10.21
839.2	10.11
839.4	9.944
839.6	9.767
839.8	9.215
840.0	9.015
840.2	9.371
840.4	9.091
840.6	9.155
840.8	9.203
841.0	9.003
841.2	8.800
841.4	8.562
841.6	7.575
841.8	7.862
842.0	8.338
842.2	8.603
842.4	9.185
842.6	9.337
842.8	8.723
843.0	8.541
843.2	7.909
843.4	7.454
843.6	7.762
843.8	8.164
844.0	8.713
844.2	8.755
844.4	8.215
844.6	8.139
844.8	8.137
845.0	8.056
845.2	8.230
845.4	7.969
845.6	7.627
845.8	7.844
846.0	7.887
846.2	7.986
846.4	7.960
846.6	8.006
846.8	7.801
847.0	7.758
847.2	7.636
847.4	7.699
847.6	7.805
847.8	8.188
848.0	7.965
848.2	7.718
848.4	7.283
848.6	6.915
848.8	6.756
849.0	6.856
849.2	7.144
849.4	7.624
849.6	7.784
849.8	7.637
850.0	6.667
850.2	6.230
850.4	6.519
850.6	7.307
850.8	7.675
851.0	7.648
851.2	7.368
851.4	7.415
851.6	7.363
851.8	7.390
852.0	7.258
852.2	7.198
852.4	7.481
852.6	7.947
852.8	7.389
853.0	6.573
853.2	6.317
853.4	6.433
853.6	6.849
853.8	7.470
854.0	6.750
854.2	6.178
854.4	5.516
854.6	5.207
854.8	5.462
855.0	6.197
855.2	6.486
855.4	6.676
855.6	6.498
855.8	6.332
856.0	6.069
856.2	6.429
856.4	6.651
856.6	6.561
856.8	6.511
857.0	6.189
857.2	5.918
857.4	5.996
857.6	6.182
857.8	6.587
858.0	7.321
858.2	7.221
858.4	7.190
858.6	6.961
858.8	6.458
859.0	6.296
859.2	6.740
859.4	6.835
859.6	6.943
859.8	7.157
860.0	6.870
860.2	6.510
860.4	6.371
860.6	6.575
860.8	6.742
861.0	7.022
861.2	6.940
861.4	6.721
861.6	6.544
861.8	6.664
862.0	6.477
862.2	5.911
862.4	5.647
862.6	5.864
862.8	6.212
863.0	6.557
863.2	6.601
863.4	6.295
863.6	6.275
863.8	6.626
864.0	6.836
864.2	6.747
864.4	6.728
864.6	6.622
864.8	6.714
865.0	6.401
865.2	6.134
865.4	6.093
865.6	5.730
865.8	5.950
866.0	6.423
866.2	6.160
866.4	6.151
866.6	6.122
866.8	5.872
867.0	5.854
867.2	6.094
867.4	6.095
867.6	6.425
867.8	6.704
868.0	6.748
868.2	6.657
868.4	6.607
868.6	6.753
868.8	6.734
869.0	6.697
869.2	6.556
869.4	6.327
869.6	5.928
869.8	6.180
870.0	5.769
870.2	6.053
870.4	6.540
870.6	6.545
870.8	6.546
871.0	6.631
871.2	6.375
871.4	6.408
871.6	6.339
871.8	6.308
872.0	6.374
872.2	6.400
872.4	6.615
872.6	6.891
872.8	6.479
873.0	6.500
873.2	6.294
873.4	6.508
873.6	6.266
873.8	6.773
874.0	6.303
874.2	6.210
874.4	6.445
874.6	6.553
874.8	6.585
875.0	7.004
875.2	7.072
875.4	7.004
875.6	7.419
875.8	7.146
876.0	7.243
876.2	6.951
876.4	6.708
876.6	6.598
876.8	6.392
877.0	6.447
877.2	6.111
877.4	6.138
877.6	6.584
877.8	7.104
878.0	7.266
878.2	6.955
878.4	6.421
878.6	6.205
878.8	6.475
879.0	6.872
879.2	6.955
879.4	6.907
879.6	7.412
879.8	7.199
880.0	7.301
880.2	7.503
880.4	7.096
880.6	7.209
880.8	7.080
881.0	6.411
881.2	6.234
881.4	6.334
881.6	6.287
881.8	6.903
882.0	7.301
882.2	7.517
882.4	7.382
882.6	7.354
882.8	7.128
883.0	7.068
883.2	7.352
883.4	7.490
883.6	7.296
883.8	7.042
884.0	6.689
884.2	6.320
884.4	6.717
884.6	6.887
884.8	6.984
885.0	6.817
885.2	6.852
885.4	6.583
885.6	6.358
885.8	5.993
886.0	5.770
886.2	5.881
886.4	6.572
886.6	6.492
886.8	6.552
887.0	6.636
887.2	6.879
887.4	6.972
887.6	7.182
887.8	6.936
888.0	6.930
888.2	6.709
888.4	6.792
888.6	6.444
888.8	6.430
889.0	6.464
889.2	6.653
889.4	6.520
889.6	6.839
889.8	7.182
890.0	7.408
890.2	7.404
890.4	7.331
890.6	6.876
890.8	6.457
891.0	6.284
891.2	6.390
891.4	6.085
891.6	6.479
891.8	6.826
892.0	6.536
892.2	6.310
892.4	6.416
892.6	6.149
892.8	6.707
893.0	6.835
893.2	6.654
893.4	6.342
893.6	6.207
893.8	6.313
894.0	6.467
894.2	6.209
894.4	6.370
894.6	6.558
894.8	6.629
895.0	6.818
895.2	6.947
895.4	6.952
895.6	6.483
895.8	6.298
896.0	6.238
896.2	6.304
896.4	6.625
896.6	6.882
896.8	6.861
897.0	6.431
897.2	6.736
897.4	7.026
897.6	7.124
897.8	7.042
898.0	6.924
898.2	5.900
898.4	6.045
898.6	6.417
898.8	6.520
899.0	6.458
899.2	6.396
899.4	6.438
899.6	7.076
899.8	7.471
900.0	7.179

