Sample:	'20211010A(EM)
File name:	r-NI-c-dots-CHO 600S2-.FDS
Run date:	'16:38:01, 03/22/2023
Operator:	Administrator
Comment:	'

Instrument
Model:	F-4700 FL Spectrophotometer
Serial number:	2019-001
ROM Version:	5J24010 00

Instrument parameters
Measurement type:	Wavelength scan
Scan mode:	Emission
Data mode:	Fluorescence
EX WL:	530.0 nm
EM  Start WL:	550.0 nm
EM  End WL:	900.0 nm
Scan speed:	1200 nm/min
Delay:	0.0 s
EX Slit:	10.0 nm
EM Slit:	10.0 nm
PMT Voltage:	660 V
Response:	0.002 s
Corrected spectra:	Off
Shutter control:	On

Processing performed
Savitsky-Golay smoothed
Smoothing order:	3
Number of points:	7
Number of times:	1

Peak integration
Integration method:	Rectangular
Sensitivity:	1
Threshold:	1.000

Peaks
No.	Start(nm)	Apex(nm)	End(nm)	Height(Data)	Valley(nm)	Valley(Data)
1	550.0	616.0	617.0	2145	617.0	2128
2	617.0	618.6	619.4	2154	619.4	2136
3	619.4	620.4	622.4	2167	622.4	2136
4	622.4	623.0	630.8	2159	630.8	2027
5	630.8	631.4	746.4	2051	746.4	100.5
6	746.4	747.4	765.6	104.0	765.6	53.05
7	765.6	767.0	770.4	54.93	770.4	46.06
8	770.4	771.2	777.4	48.20	777.4	36.00
9	777.4	778.2	785.0	38.75	785.0	28.78
10	785.0	785.8	790.4	32.50	790.4	27.71
11	790.4	791.2	792.6	30.34	792.6	24.82
12	792.6	794.4	795.2	28.52	795.2	24.83
13	795.2	795.8	799.0	26.95	799.0	22.75
14	799.0	799.6	801.2	25.49	801.2	21.91
15	801.2	802.0	802.8	24.22	802.8	22.26
16	802.8	804.2	807.4	23.68	807.4	20.11
17	807.4	809.4	813.4	21.89	813.4	18.16
18	813.4	814.2	816.2	19.42	816.2	16.90
19	816.2	817.2	818.8	18.52	818.8	15.00
20	818.8	819.6	822.2	16.96	822.2	14.67
21	822.2	823.0	824.4	16.50	824.4	14.12
22	824.4	825.0	832.2	15.96	832.2	10.79
23	832.2	833.8	836.2	12.36	836.2	9.048
24	836.2	837.0	838.8	11.66	838.8	8.077
25	838.8	840.8	845.8	10.20	845.8	6.701
26	845.8	847.0	853.2	8.919	853.2	5.313
27	853.2	854.8	858.0	7.431	858.0	5.277
28	858.0	863.8	866.2	7.026	866.2	5.522
29	866.2	867.0	868.8	6.645	868.8	5.384
30	868.8	870.2	873.8	6.612	873.8	4.425
31	873.8	877.4	882.6	7.175	882.6	5.591
32	882.6	883.2	886.4	6.652	886.4	4.990
33	886.4	889.0	890.8	6.706	890.8	5.484
34	890.8	893.0	900.0	6.518	900.0	5.651

Data points
nm	Data
550.0	350.8
550.2	349.5
550.4	349.6
550.6	350.1
550.8	348.7
551.0	350.5
551.2	350.1
551.4	349.1
551.6	352.2
551.8	353.1
552.0	348.6
552.2	347.0
552.4	349.4
552.6	352.9
552.8	358.1
553.0	361.7
553.2	366.0
553.4	368.9
553.6	373.2
553.8	372.2
554.0	367.4
554.2	365.1
554.4	368.9
554.6	371.4
554.8	375.6
555.0	374.0
555.2	375.1
555.4	377.7
555.6	377.7
555.8	380.8
556.0	381.5
556.2	379.2
556.4	386.3
556.6	388.5
556.8	392.3
557.0	398.7
557.2	402.3
557.4	402.4
557.6	406.2
557.8	405.0
558.0	408.3
558.2	414.7
558.4	420.6
558.6	424.0
558.8	424.9
559.0	428.2
559.2	429.9
559.4	429.4
559.6	428.7
559.8	430.6
560.0	437.8
560.2	448.4
560.4	452.7
560.6	451.5
560.8	452.7
561.0	456.9
561.2	467.4
561.4	473.3
561.6	475.9
561.8	473.5
562.0	473.7
562.2	477.4
562.4	482.2
562.6	484.7
562.8	487.9
563.0	489.4
563.2	492.9
563.4	497.4
563.6	501.6
563.8	506.5
564.0	513.1
564.2	521.5
564.4	527.6
564.6	529.0
564.8	526.8
565.0	528.2
565.2	535.6
565.4	546.4
565.6	553.5
565.8	553.7
566.0	552.2
566.2	555.6
566.4	564.1
566.6	575.1
566.8	579.3
567.0	582.0
567.2	585.2
567.4	589.5
567.6	593.1
567.8	603.2
568.0	610.6
568.2	616.1
568.4	614.5
568.6	618.8
568.8	620.9
569.0	629.4
569.2	641.0
569.4	642.6
569.6	641.9
569.8	657.6
570.0	667.6
570.2	680.4
570.4	688.3
570.6	685.7
570.8	684.2
571.0	689.6
571.2	694.7
571.4	702.6
571.6	707.8
571.8	718.6
572.0	726.3
572.2	733.0
572.4	736.7
572.6	734.8
572.8	735.8
573.0	748.4
573.2	757.1
573.4	768.0
573.6	774.1
573.8	772.8
574.0	779.5
574.2	788.1
574.4	797.5
574.6	806.4
574.8	811.6
575.0	814.6
575.2	819.9
575.4	823.8
575.6	832.1
575.8	834.7
576.0	845.3
576.2	861.3
576.4	868.2
576.6	877.7
576.8	887.0
577.0	885.0
577.2	891.3
577.4	899.0
577.6	902.0
577.8	908.9
578.0	919.5
578.2	923.9
578.4	931.4
578.6	940.8
578.8	948.1
579.0	954.8
579.2	962.8
579.4	970.1
579.6	975.6
579.8	989.1
580.0	1001
580.2	1010
580.4	1016
580.6	1023
580.8	1020
581.0	1027
581.2	1038
581.4	1047
581.6	1060
581.8	1075
582.0	1071
582.2	1075
582.4	1079
582.6	1089
582.8	1107
583.0	1126
583.2	1132
583.4	1137
583.6	1135
583.8	1143
584.0	1153
584.2	1162
584.4	1171
584.6	1176
584.8	1189
585.0	1199
585.2	1212
585.4	1217
585.6	1221
585.8	1228
586.0	1245
586.2	1252
586.4	1259
586.6	1266
586.8	1274
587.0	1280
587.2	1290
587.4	1297
587.6	1300
587.8	1302
588.0	1315
588.2	1323
588.4	1339
588.6	1349
588.8	1361
589.0	1364
589.2	1372
589.4	1381
589.6	1388
589.8	1386
590.0	1394
590.2	1398
590.4	1412
590.6	1429
590.8	1439
591.0	1447
591.2	1466
591.4	1470
591.6	1479
591.8	1481
592.0	1480
592.2	1485
592.4	1496
592.6	1505
592.8	1516
593.0	1532
593.2	1542
593.4	1550
593.6	1552
593.8	1560
594.0	1563
594.2	1582
594.4	1597
594.6	1605
594.8	1606
595.0	1610
595.2	1613
595.4	1623
595.6	1636
595.8	1643
596.0	1643
596.2	1651
596.4	1662
596.6	1673
596.8	1691
597.0	1700
597.2	1700
597.4	1701
597.6	1706
597.8	1713
598.0	1722
598.2	1730
598.4	1740
598.6	1745
598.8	1755
599.0	1763
599.2	1766
599.4	1767
599.6	1777
599.8	1786
600.0	1798
600.2	1807
600.4	1811
600.6	1811
600.8	1820
601.0	1828
601.2	1833
601.4	1836
601.6	1833
601.8	1844
602.0	1852
602.2	1857
602.4	1860
602.6	1873
602.8	1874
603.0	1883
603.2	1883
603.4	1883
603.6	1892
603.8	1903
604.0	1910
604.2	1917
604.4	1925
604.6	1935
604.8	1946
605.0	1948
605.2	1952
605.4	1958
605.6	1962
605.8	1966
606.0	1966
606.2	1978
606.4	1988
606.6	1993
606.8	1991
607.0	1991
607.2	1991
607.4	2006
607.6	2010
607.8	2013
608.0	2014
608.2	2022
608.4	2029
608.6	2038
608.8	2032
609.0	2034
609.2	2031
609.4	2039
609.6	2045
609.8	2058
610.0	2059
610.2	2062
610.4	2064
610.6	2068
610.8	2064
611.0	2073
611.2	2074
611.4	2073
611.6	2088
611.8	2088
612.0	2084
612.2	2087
612.4	2080
612.6	2084
612.8	2096
613.0	2107
613.2	2112
613.4	2116
613.6	2115
613.8	2126
614.0	2126
614.2	2128
614.4	2131
614.6	2122
614.8	2118
615.0	2125
615.2	2126
615.4	2131
615.6	2144
615.8	2144
616.0	2145
616.2	2145
616.4	2141
616.6	2139
616.8	2132
617.0	2128
617.2	2131
617.4	2135
617.6	2139
617.8	2148
618.0	2148
618.2	2146
618.4	2151
618.6	2154
618.8	2151
619.0	2151
619.2	2152
619.4	2136
619.6	2140
619.8	2146
620.0	2152
620.2	2157
620.4	2167
620.6	2149
620.8	2153
621.0	2146
621.2	2139
621.4	2143
621.6	2147
621.8	2144
622.0	2152
622.2	2140
622.4	2136
622.6	2146
622.8	2145
623.0	2159
623.2	2156
623.4	2149
623.6	2135
623.8	2130
624.0	2130
624.2	2142
624.4	2135
624.6	2136
624.8	2130
625.0	2127
625.2	2127
625.4	2132
625.6	2129
625.8	2128
626.0	2128
626.2	2120
626.4	2116
626.6	2126
626.8	2120
627.0	2122
627.2	2120
627.4	2109
627.6	2102
627.8	2097
628.0	2084
628.2	2088
628.4	2091
628.6	2090
628.8	2078
629.0	2072
629.2	2067
629.4	2065
629.6	2064
629.8	2066
630.0	2059
630.2	2055
630.4	2043
630.6	2032
630.8	2027
631.0	2039
631.2	2045
631.4	2051
631.6	2048
631.8	2038
632.0	2029
632.2	2030
632.4	2022
632.6	2024
632.8	2018
633.0	2009
633.2	2008
633.4	2003
633.6	1998
633.8	1999
634.0	1985
634.2	1980
634.4	1971
634.6	1968
634.8	1975
635.0	1973
635.2	1967
635.4	1962
635.6	1952
635.8	1956
636.0	1957
636.2	1944
636.4	1931
636.6	1924
636.8	1920
637.0	1922
637.2	1925
637.4	1916
637.6	1907
637.8	1901
638.0	1892
638.2	1881
638.4	1874
638.6	1864
638.8	1856
639.0	1853
639.2	1856
639.4	1857
639.6	1858
639.8	1854
640.0	1834
640.2	1820
640.4	1813
640.6	1810
640.8	1815
641.0	1819
641.2	1813
641.4	1814
641.6	1816
641.8	1811
642.0	1801
642.2	1783
642.4	1765
642.6	1762
642.8	1765
643.0	1764
643.2	1765
643.4	1756
643.6	1753
643.8	1748
644.0	1744
644.2	1737
644.4	1729
644.6	1720
644.8	1717
645.0	1712
645.2	1714
645.4	1713
645.6	1700
645.8	1690
646.0	1680
646.2	1665
646.4	1661
646.6	1653
646.8	1649
647.0	1649
647.2	1651
647.4	1639
647.6	1624
647.8	1611
648.0	1608
648.2	1607
648.4	1605
648.6	1602
648.8	1585
649.0	1581
649.2	1578
649.4	1577
649.6	1580
649.8	1579
650.0	1569
650.2	1562
650.4	1550
650.6	1537
650.8	1533
651.0	1522
651.2	1523
651.4	1527
651.6	1517
651.8	1504
652.0	1494
652.2	1488
652.4	1490
652.6	1487
652.8	1469
653.0	1460
653.2	1451
653.4	1451
653.6	1446
653.8	1438
654.0	1431
654.2	1434
654.4	1438
654.6	1434
654.8	1415
655.0	1397
655.2	1383
655.4	1383
655.6	1383
655.8	1387
656.0	1377
656.2	1377
656.4	1373
656.6	1370
656.8	1359
657.0	1356
657.2	1345
657.4	1338
657.6	1330
657.8	1325
658.0	1317
658.2	1313
658.4	1305
658.6	1296
658.8	1293
659.0	1291
659.2	1286
659.4	1279
659.6	1269
659.8	1268
660.0	1268
660.2	1259
660.4	1245
660.6	1241
660.8	1236
661.0	1241
661.2	1242
661.4	1224
661.6	1205
661.8	1200
662.0	1200
662.2	1208
662.4	1209
662.6	1198
662.8	1182
663.0	1167
663.2	1166
663.4	1163
663.6	1163
663.8	1161
664.0	1152
664.2	1136
664.4	1135
664.6	1125
664.8	1122
665.0	1121
665.2	1114
665.4	1103
665.6	1100
665.8	1094
666.0	1086
666.2	1084
666.4	1085
666.6	1082
666.8	1078
667.0	1074
667.2	1064
667.4	1052
667.6	1045
667.8	1038
668.0	1030
668.2	1024
668.4	1022
668.6	1022
668.8	1027
669.0	1024
669.2	1018
669.4	1010
669.6	1002
669.8	995.5
670.0	996.4
670.2	991.2
670.4	985.2
670.6	981.8
670.8	976.0
671.0	966.9
671.2	961.4
671.4	958.3
671.6	950.4
671.8	946.8
672.0	947.8
672.2	940.9
672.4	933.2
672.6	929.0
672.8	924.2
673.0	918.0
673.2	919.0
673.4	911.9
673.6	905.2
673.8	895.8
674.0	889.7
674.2	885.9
674.4	885.8
674.6	884.6
674.8	882.8
675.0	878.8
675.2	872.9
675.4	874.2
675.6	864.2
675.8	853.5
676.0	850.9
676.2	847.0
676.4	844.1
676.6	841.9
676.8	834.9
677.0	825.5
677.2	828.3
677.4	825.1
677.6	822.9
677.8	818.5
678.0	818.0
678.2	808.7
678.4	803.6
678.6	794.3
678.8	785.2
679.0	778.2
679.2	779.7
679.4	775.2
679.6	775.5
679.8	776.0
680.0	771.8
680.2	763.1
680.4	757.7
680.6	749.9
680.8	746.0
681.0	747.4
681.2	744.7
681.4	734.5
681.6	725.8
681.8	722.1
682.0	722.8
682.2	726.5
682.4	722.4
682.6	713.0
682.8	704.8
683.0	700.6
683.2	700.4
683.4	699.2
683.6	695.2
683.8	688.8
684.0	679.2
684.2	672.5
684.4	673.0
684.6	675.9
684.8	680.5
685.0	675.8
685.2	664.8
685.4	653.8
685.6	649.7
685.8	647.4
686.0	645.5
686.2	640.8
686.4	638.7
686.6	637.3
686.8	634.3
687.0	633.6
687.2	633.1
687.4	627.1
687.6	620.9
687.8	615.7
688.0	609.2
688.2	607.1
688.4	606.5
688.6	604.4
688.8	602.4
689.0	599.7
689.2	597.0
689.4	589.7
689.6	578.2
689.8	575.1
690.0	572.6
690.2	569.5
690.4	568.6
690.6	571.3
690.8	573.2
691.0	576.8
691.2	572.7
691.4	565.8
691.6	557.2
691.8	548.4
692.0	545.7
692.2	542.5
692.4	540.8
692.6	539.9
692.8	538.5
693.0	533.6
693.2	533.3
693.4	532.0
693.6	531.3
693.8	526.2
694.0	519.1
694.2	509.9
694.4	509.9
694.6	512.0
694.8	513.3
695.0	510.2
695.2	504.8
695.4	495.5
695.6	492.4
695.8	493.8
696.0	497.4
696.2	499.4
696.4	498.0
696.6	490.0
696.8	482.8
697.0	476.7
697.2	477.6
697.4	478.3
697.6	478.8
697.8	473.7
698.0	472.1
698.2	466.6
698.4	465.0
698.6	462.1
698.8	458.0
699.0	450.3
699.2	451.6
699.4	449.5
699.6	446.5
699.8	447.9
700.0	447.0
700.2	442.8
700.4	441.4
700.6	436.8
700.8	432.5
701.0	431.9
701.2	433.1
701.4	432.2
701.6	429.2
701.8	424.9
702.0	423.1
702.2	420.7
702.4	415.8
702.6	413.3
702.8	412.4
703.0	412.3
703.2	413.6
703.4	411.4
703.6	408.0
703.8	402.0
704.0	399.3
704.2	397.7
704.4	394.1
704.6	390.6
704.8	396.9
705.0	398.2
705.2	398.4
705.4	395.5
705.6	388.6
705.8	384.0
706.0	382.6
706.2	379.2
706.4	380.3
706.6	379.1
706.8	377.0
707.0	374.2
707.2	368.8
707.4	364.1
707.6	362.0
707.8	358.9
708.0	358.5
708.2	354.8
708.4	351.9
708.6	351.0
708.8	349.4
709.0	349.8
709.2	352.5
709.4	353.4
709.6	351.8
709.8	348.0
710.0	341.4
710.2	336.8
710.4	332.2
710.6	332.1
710.8	336.7
711.0	337.5
711.2	335.2
711.4	333.4
711.6	331.7
711.8	330.9
712.0	331.9
712.2	327.5
712.4	321.2
712.6	316.4
712.8	315.6
713.0	314.8
713.2	312.2
713.4	310.3
713.6	308.5
713.8	307.7
714.0	306.2
714.2	304.1
714.4	301.3
714.6	300.8
714.8	300.3
715.0	300.4
715.2	297.2
715.4	293.1
715.6	287.3
715.8	286.6
716.0	285.2
716.2	284.2
716.4	281.4
716.6	279.8
716.8	275.2
717.0	276.6
717.2	275.5
717.4	270.0
717.6	267.1
717.8	267.1
718.0	267.4
718.2	270.1
718.4	269.8
718.6	264.3
718.8	260.6
719.0	259.5
719.2	257.6
719.4	258.5
719.6	258.2
719.8	257.0
720.0	254.8
720.2	252.4
720.4	249.3
720.6	245.5
720.8	243.2
721.0	243.3
721.2	244.9
721.4	243.4
721.6	243.3
721.8	241.7
722.0	239.7
722.2	238.8
722.4	238.9
722.6	235.1
722.8	232.0
723.0	230.9
723.2	227.0
723.4	224.0
723.6	222.2
723.8	222.0
724.0	221.3
724.2	223.1
724.4	220.1
724.6	219.0
724.8	216.6
725.0	212.8
725.2	210.4
725.4	210.6
725.6	207.9
725.8	208.2
726.0	207.6
726.2	205.0
726.4	203.4
726.6	202.6
726.8	203.4
727.0	200.9
727.2	200.1
727.4	198.0
727.6	193.8
727.8	193.5
728.0	193.0
728.2	190.2
728.4	189.5
728.6	188.4
728.8	186.9
729.0	187.4
729.2	186.5
729.4	185.6
729.6	182.9
729.8	183.2
730.0	177.4
730.2	175.9
730.4	175.5
730.6	173.5
730.8	174.5
731.0	176.6
731.2	171.1
731.4	169.7
731.6	169.7
731.8	166.5
732.0	169.2
732.2	169.1
732.4	165.4
732.6	161.9
732.8	160.6
733.0	158.2
733.2	159.2
733.4	159.6
733.6	157.1
733.8	155.1
734.0	153.4
734.2	153.8
734.4	154.6
734.6	154.5
734.8	152.0
735.0	149.1
735.2	147.2
735.4	148.2
735.6	149.1
735.8	146.8
736.0	144.7
736.2	143.9
736.4	143.3
736.6	143.3
736.8	143.0
737.0	139.0
737.2	136.3
737.4	137.1
737.6	139.1
737.8	140.9
738.0	142.4
738.2	141.1
738.4	136.6
738.6	132.7
738.8	130.5
739.0	130.9
739.2	130.4
739.4	131.3
739.6	129.6
739.8	129.4
740.0	127.3
740.2	126.7
740.4	125.4
740.6	123.2
740.8	121.7
741.0	123.0
741.2	123.4
741.4	124.1
741.6	123.4
741.8	120.8
742.0	118.3
742.2	115.9
742.4	117.5
742.6	118.8
742.8	116.6
743.0	113.7
743.2	110.9
743.4	108.5
743.6	111.4
743.8	114.8
744.0	115.0
744.2	112.9
744.4	109.5
744.6	105.9
744.8	105.4
745.0	105.8
745.2	104.4
745.4	104.6
745.6	104.0
745.8	102.9
746.0	102.6
746.2	102.7
746.4	100.5
746.6	100.5
746.8	101.1
747.0	100.6
747.2	102.0
747.4	104.0
747.6	103.6
747.8	101.4
748.0	98.58
748.2	94.00
748.4	94.23
748.6	95.11
748.8	94.18
749.0	92.98
749.2	91.72
749.4	91.00
749.6	92.99
749.8	94.22
750.0	93.70
750.2	93.65
750.4	91.81
750.6	90.31
750.8	89.31
751.0	88.47
751.2	87.89
751.4	87.99
751.6	88.78
751.8	87.58
752.0	87.79
752.2	86.12
752.4	85.24
752.6	85.19
752.8	86.00
753.0	84.08
753.2	84.52
753.4	82.87
753.6	81.75
753.8	82.13
754.0	79.87
754.2	77.41
754.4	77.36
754.6	76.32
754.8	75.69
755.0	77.12
755.2	76.69
755.4	76.71
755.6	75.80
755.8	73.77
756.0	73.39
756.2	73.07
756.4	73.17
756.6	73.11
756.8	71.99
757.0	72.23
757.2	73.41
757.4	72.13
757.6	70.94
757.8	68.54
758.0	68.87
758.2	69.59
758.4	68.51
758.6	67.94
758.8	67.70
759.0	65.46
759.2	66.57
759.4	66.57
759.6	65.74
759.8	67.56
760.0	67.97
760.2	66.66
760.4	65.02
760.6	63.62
760.8	62.08
761.0	61.69
761.2	60.99
761.4	60.87
761.6	61.14
761.8	62.34
762.0	61.84
762.2	59.93
762.4	59.54
762.6	58.85
762.8	57.72
763.0	58.02
763.2	59.08
763.4	58.54
763.6	59.49
763.8	58.88
764.0	56.89
764.2	54.86
764.4	54.38
764.6	55.60
764.8	56.70
765.0	56.66
765.2	55.72
765.4	53.86
765.6	53.05
765.8	54.85
766.0	54.27
766.2	54.09
766.4	53.68
766.6	54.35
766.8	54.69
767.0	54.93
767.2	52.75
767.4	51.59
767.6	50.42
767.8	50.27
768.0	48.77
768.2	49.36
768.4	49.57
768.6	50.23
768.8	50.49
769.0	50.04
769.2	48.87
769.4	48.29
769.6	48.01
769.8	47.37
770.0	47.62
770.2	46.36
770.4	46.06
770.6	46.61
770.8	46.83
771.0	47.38
771.2	48.20
771.4	46.81
771.6	45.92
771.8	45.40
772.0	43.81
772.2	44.37
772.4	44.51
772.6	43.88
772.8	44.89
773.0	44.26
773.2	43.52
773.4	41.60
773.6	40.91
773.8	41.45
774.0	42.89
774.2	42.85
774.4	43.27
774.6	41.55
774.8	41.28
775.0	41.71
775.2	40.81
775.4	39.59
775.6	40.62
775.8	40.06
776.0	39.32
776.2	38.86
776.4	38.40
776.6	37.60
776.8	38.08
777.0	37.31
777.2	36.15
777.4	36.00
777.6	36.92
777.8	37.60
778.0	38.25
778.2	38.75
778.4	37.72
778.6	37.48
778.8	37.00
779.0	36.91
779.2	36.82
779.4	37.28
779.6	35.61
779.8	35.42
780.0	34.98
780.2	35.07
780.4	35.42
780.6	36.14
780.8	35.74
781.0	34.97
781.2	34.22
781.4	33.82
781.6	32.81
781.8	33.48
782.0	33.76
782.2	32.78
782.4	32.49
782.6	32.78
782.8	32.19
783.0	32.90
783.2	32.62
783.4	32.81
783.6	33.11
783.8	32.44
784.0	32.22
784.2	32.25
784.4	31.84
784.6	31.34
784.8	30.55
785.0	28.78
785.2	29.48
785.4	31.18
785.6	31.96
785.8	32.50
786.0	31.62
786.2	30.93
786.4	30.64
786.6	30.47
786.8	30.49
787.0	30.19
787.2	29.81
787.4	29.78
787.6	29.04
787.8	29.09
788.0	29.54
788.2	29.57
788.4	30.12
788.6	29.76
788.8	29.31
789.0	29.45
789.2	29.00
789.4	29.04
789.6	29.18
789.8	28.82
790.0	28.09
790.2	27.78
790.4	27.71
790.6	28.39
790.8	29.35
791.0	30.08
791.2	30.34
791.4	30.11
791.6	29.16
791.8	28.18
792.0	25.96
792.2	25.11
792.4	24.84
792.6	24.82
792.8	26.33
793.0	27.33
793.2	26.96
793.4	26.52
793.6	25.12
793.8	25.17
794.0	26.65
794.2	27.64
794.4	28.52
794.6	27.76
794.8	25.46
795.0	25.12
795.2	24.83
795.4	25.40
795.6	26.71
795.8	26.95
796.0	26.51
796.2	26.07
796.4	25.78
796.6	24.86
796.8	24.93
797.0	24.56
797.2	24.51
797.4	24.82
797.6	25.08
797.8	24.58
798.0	24.99
798.2	24.44
798.4	23.47
798.6	23.82
798.8	22.94
799.0	22.75
799.2	24.26
799.4	24.99
799.6	25.49
799.8	25.46
800.0	23.96
800.2	22.79
800.4	22.20
800.6	21.91
800.8	22.38
801.0	22.10
801.2	21.91
801.4	22.49
801.6	23.81
801.8	24.06
802.0	24.22
802.2	23.65
802.4	22.40
802.6	22.28
802.8	22.26
803.0	22.94
803.2	23.39
803.4	23.22
803.6	22.78
803.8	23.11
804.0	22.68
804.2	23.68
804.4	22.70
804.6	21.93
804.8	21.08
805.0	22.12
805.2	22.39
805.4	22.05
805.6	21.76
805.8	21.33
806.0	20.20
806.2	20.55
806.4	20.42
806.6	20.55
806.8	21.33
807.0	21.20
807.2	20.69
807.4	20.11
807.6	20.28
807.8	20.85
808.0	21.06
808.2	21.55
808.4	21.35
808.6	21.15
808.8	21.01
809.0	21.62
809.2	21.74
809.4	21.89
809.6	20.60
809.8	19.98
810.0	20.16
810.2	21.09
810.4	20.96
810.6	20.75
810.8	20.07
811.0	19.86
811.2	20.52
811.4	20.15
811.6	19.30
811.8	19.01
812.0	18.73
812.2	19.12
812.4	20.03
812.6	19.58
812.8	19.56
813.0	18.83
813.2	18.26
813.4	18.16
813.6	18.66
813.8	18.50
814.0	19.40
814.2	19.42
814.4	19.37
814.6	18.46
814.8	17.63
815.0	17.23
815.2	17.81
815.4	18.44
815.6	18.43
815.8	17.42
816.0	16.94
816.2	16.90
816.4	17.02
816.6	17.58
816.8	18.09
817.0	18.20
817.2	18.52
817.4	18.35
817.6	16.90
817.8	16.91
818.0	16.61
818.2	16.55
818.4	16.38
818.6	16.03
818.8	15.00
819.0	15.88
819.2	16.82
819.4	16.84
819.6	16.96
819.8	16.58
820.0	16.32
820.2	16.06
820.4	16.78
820.6	16.67
820.8	16.82
821.0	16.65
821.2	16.83
821.4	16.44
821.6	16.39
821.8	15.73
822.0	15.21
822.2	14.67
822.4	14.94
822.6	15.57
822.8	16.28
823.0	16.50
823.2	16.06
823.4	15.82
823.6	15.48
823.8	14.90
824.0	14.37
824.2	14.21
824.4	14.12
824.6	15.13
824.8	15.91
825.0	15.96
825.2	15.57
825.4	15.34
825.6	15.14
825.8	15.24
826.0	14.95
826.2	14.69
826.4	14.55
826.6	14.40
826.8	14.80
827.0	15.06
827.2	14.02
827.4	14.08
827.6	14.51
827.8	14.16
828.0	14.46
828.2	14.20
828.4	13.80
828.6	13.97
828.8	13.80
829.0	13.21
829.2	12.82
829.4	12.60
829.6	12.82
829.8	12.28
830.0	12.63
830.2	12.86
830.4	13.12
830.6	12.66
830.8	12.39
831.0	11.88
831.2	12.52
831.4	12.81
831.6	13.20
831.8	11.95
832.0	11.24
832.2	10.79
832.4	11.00
832.6	11.99
832.8	12.32
833.0	11.88
833.2	11.31
833.4	11.15
833.6	11.35
833.8	12.36
834.0	12.00
834.2	12.03
834.4	11.32
834.6	10.80
834.8	9.876
835.0	10.05
835.2	11.12
835.4	11.88
835.6	11.28
835.8	10.35
836.0	9.319
836.2	9.048
836.4	10.62
836.6	10.89
836.8	11.34
837.0	11.66
837.2	11.37
837.4	11.15
837.6	11.24
837.8	10.60
838.0	10.42
838.2	10.22
838.4	8.973
838.6	8.464
838.8	8.077
839.0	8.395
839.2	8.437
839.4	9.132
839.6	8.980
839.8	8.518
840.0	8.436
840.2	8.832
840.4	8.998
840.6	10.01
840.8	10.20
841.0	9.516
841.2	9.452
841.4	9.086
841.6	8.693
841.8	8.490
842.0	8.745
842.2	8.659
842.4	9.048
842.6	9.211
842.8	9.461
843.0	8.813
843.2	9.159
843.4	8.971
843.6	8.899
843.8	8.789
844.0	8.596
844.2	8.223
844.4	8.131
844.6	8.148
844.8	8.562
845.0	8.699
845.2	8.365
845.4	7.698
845.6	7.071
845.8	6.701
846.0	7.224
846.2	7.527
846.4	7.811
846.6	8.402
846.8	8.748
847.0	8.919
847.2	8.915
847.4	8.296
847.6	7.394
847.8	7.351
848.0	7.107
848.2	7.212
848.4	7.256
848.6	7.510
848.8	7.276
849.0	7.661
849.2	7.719
849.4	7.392
849.6	7.304
849.8	7.088
850.0	7.069
850.2	7.345
850.4	7.771
850.6	7.688
850.8	7.853
851.0	7.496
851.2	7.702
851.4	7.430
851.6	7.378
851.8	6.676
852.0	6.360
852.2	5.961
852.4	6.307
852.6	6.280
852.8	5.979
853.0	5.627
853.2	5.313
853.4	5.421
853.6	5.768
853.8	5.979
854.0	5.878
854.2	6.331
854.4	6.762
854.6	7.285
854.8	7.431
855.0	7.094
855.2	6.257
855.4	5.962
855.6	5.980
855.8	5.824
856.0	6.136
856.2	6.391
856.4	6.385
856.6	6.655
856.8	6.564
857.0	6.490
857.2	6.615
857.4	6.540
857.6	6.028
857.8	5.545
858.0	5.277
858.2	6.199
858.4	6.684
858.6	6.409
858.8	6.155
859.0	5.842
859.2	5.988
859.4	6.640
859.6	6.568
859.8	6.292
860.0	6.461
860.2	6.397
860.4	6.231
860.6	5.860
860.8	6.219
861.0	6.514
861.2	6.225
861.4	6.236
861.6	6.208
861.8	5.988
862.0	6.483
862.2	6.553
862.4	5.938
862.6	5.927
862.8	5.758
863.0	5.605
863.2	6.089
863.4	6.266
863.6	6.924
863.8	7.026
864.0	6.932
864.2	6.912
864.4	6.847
864.6	6.665
864.8	6.503
865.0	6.454
865.2	6.807
865.4	7.126
865.6	6.952
865.8	6.569
866.0	5.580
866.2	5.522
866.4	5.740
866.6	6.157
866.8	6.619
867.0	6.645
867.2	6.267
867.4	5.919
867.6	5.513
867.8	5.583
868.0	5.705
868.2	6.142
868.4	6.212
868.6	5.948
868.8	5.384
869.0	5.591
869.2	5.726
869.4	6.033
869.6	6.443
869.8	6.457
870.0	6.368
870.2	6.612
870.4	6.392
870.6	6.305
870.8	6.058
871.0	6.051
871.2	5.914
871.4	5.905
871.6	5.930
871.8	5.932
872.0	5.975
872.2	5.937
872.4	5.679
872.6	5.742
872.8	6.454
873.0	6.548
873.2	6.422
873.4	5.676
873.6	4.916
873.8	4.425
874.0	4.908
874.2	5.412
874.4	5.615
874.6	5.532
874.8	5.443
875.0	5.730
875.2	5.902
875.4	6.191
875.6	6.139
875.8	6.059
876.0	6.013
876.2	6.044
876.4	5.468
876.6	5.765
876.8	5.773
877.0	6.244
877.2	6.779
877.4	7.175
877.6	6.642
877.8	6.211
878.0	5.752
878.2	5.846
878.4	5.908
878.6	6.165
878.8	6.208
879.0	6.206
879.2	6.198
879.4	6.361
879.6	5.879
879.8	5.839
880.0	5.962
880.2	6.339
880.4	6.083
880.6	6.195
880.8	5.821
881.0	5.882
881.2	6.030
881.4	5.994
881.6	6.090
881.8	6.460
882.0	6.114
882.2	5.937
882.4	5.813
882.6	5.591
882.8	6.005
883.0	6.347
883.2	6.652
883.4	6.532
883.6	6.522
883.8	6.314
884.0	6.148
884.2	6.159
884.4	6.557
884.6	6.488
884.8	6.702
885.0	6.429
885.2	6.068
885.4	6.076
885.6	6.212
885.8	6.019
886.0	5.458
886.2	5.188
886.4	4.990
886.6	5.201
886.8	5.906
887.0	6.446
887.2	6.232
887.4	6.113
887.6	5.798
887.8	5.733
888.0	5.688
888.2	5.928
888.4	5.790
888.6	5.886
888.8	6.348
889.0	6.706
889.2	6.339
889.4	6.291
889.6	6.100
889.8	6.357
890.0	6.683
890.2	6.258
890.4	5.916
890.6	5.613
890.8	5.484
891.0	6.009
891.2	6.069
891.4	6.034
891.6	6.341
891.8	6.187
892.0	5.887
892.2	6.024
892.4	5.837
892.6	6.330
892.8	6.383
893.0	6.518
893.2	6.421
893.4	6.293
893.6	6.073
893.8	6.051
894.0	5.775
894.2	5.911
894.4	5.834
894.6	5.900
894.8	5.595
895.0	5.674
895.2	5.858
895.4	6.126
895.6	6.309
895.8	6.469
896.0	6.163
896.2	6.114
896.4	5.746
896.6	5.778
896.8	6.143
897.0	6.483
897.2	6.502
897.4	6.310
897.6	5.555
897.8	5.194
898.0	5.086
898.2	5.381
898.4	5.624
898.6	5.749
898.8	5.822
899.0	6.531
899.2	6.719
899.4	6.658
899.6	6.218
899.8	5.798
900.0	5.651

