Sample:	'20211010A(EM)
File name:	G-NI 1 100.FDS
Run date:	'19:12:04, 06/19/2023
Operator:	Administrator
Comment:	'

Instrument
Model:	F-4700 FL Spectrophotometer
Serial number:	2019-001
ROM Version:	5J24010 00

Instrument parameters
Measurement type:	Wavelength scan
Scan mode:	Emission
Data mode:	Fluorescence
EX WL:	400.0 nm
EM  Start WL:	420.0 nm
EM  End WL:	800.0 nm
Scan speed:	1200 nm/min
Delay:	0.0 s
EX Slit:	10.0 nm
EM Slit:	10.0 nm
PMT Voltage:	500 V
Response:	0.002 s
Corrected spectra:	Off
Shutter control:	On

Processing performed
Savitsky-Golay smoothed
Smoothing order:	3
Number of points:	7
Number of times:	1

Peak integration
Integration method:	Rectangular
Sensitivity:	1
Threshold:	1.000

Peaks
No.	Start(nm)	Apex(nm)	End(nm)	Height(Data)	Valley(nm)	Valley(Data)
1	420.0	547.8	548.6	6827	548.6	6782
2	548.6	550.6	748.0	6834	748.0	29.78
3	748.0	748.6	756.0	31.50	756.0	22.12
4	756.0	756.6	760.0	23.29	760.0	19.09
5	760.0	760.8	777.8	20.89	777.8	10.96
6	777.8	778.8	785.8	12.07	785.8	9.328
7	785.8	786.4	790.4	10.37	790.4	9.201
8	790.4	792.6	794.0	10.88	794.0	8.828
9	794.0	796.6	800.0	10.77	800.0	9.001

Data points
nm	Data
420.0	2.620
420.2	2.786
420.4	2.769
420.6	2.670
420.8	2.711
421.0	2.661
421.2	2.720
421.4	2.798
421.6	2.800
421.8	2.605
422.0	2.757
422.2	2.692
422.4	2.646
422.6	2.709
422.8	2.877
423.0	2.854
423.2	2.960
423.4	2.684
423.6	2.474
423.8	2.563
424.0	2.881
424.2	2.990
424.4	3.071
424.6	3.008
424.8	2.884
425.0	2.654
425.2	2.555
425.4	2.656
425.6	2.955
425.8	3.131
426.0	3.213
426.2	2.919
426.4	2.730
426.6	2.808
426.8	2.996
427.0	3.056
427.2	3.102
427.4	2.718
427.6	2.529
427.8	2.571
428.0	2.725
428.2	2.945
428.4	3.002
428.6	2.755
428.8	2.665
429.0	2.722
429.2	2.656
429.4	2.759
429.6	2.655
429.8	2.731
430.0	2.988
430.2	3.103
430.4	3.143
430.6	3.211
430.8	3.013
431.0	2.869
431.2	2.890
431.4	2.955
431.6	3.008
431.8	3.079
432.0	2.927
432.2	2.981
432.4	3.016
432.6	3.276
432.8	3.315
433.0	3.220
433.2	2.961
433.4	2.913
433.6	2.788
433.8	2.823
434.0	2.874
434.2	2.929
434.4	3.114
434.6	3.193
434.8	3.405
435.0	3.405
435.2	3.237
435.4	3.239
435.6	3.197
435.8	3.171
436.0	3.216
436.2	3.218
436.4	3.086
436.6	3.181
436.8	3.216
437.0	3.235
437.2	3.244
437.4	3.093
437.6	3.110
437.8	3.368
438.0	3.596
438.2	3.309
438.4	3.139
438.6	2.964
438.8	2.837
439.0	3.044
439.2	3.353
439.4	3.320
439.6	3.434
439.8	3.659
440.0	3.428
440.2	3.533
440.4	3.418
440.6	3.322
440.8	3.184
441.0	3.287
441.2	3.466
441.4	3.721
441.6	3.663
441.8	3.670
442.0	3.608
442.2	3.797
442.4	3.916
442.6	3.818
442.8	3.572
443.0	3.518
443.2	3.546
443.4	3.822
443.6	3.859
443.8	3.729
444.0	3.439
444.2	3.421
444.4	3.581
444.6	3.670
444.8	3.841
445.0	4.070
445.2	4.212
445.4	4.491
445.6	4.375
445.8	3.981
446.0	3.963
446.2	3.917
446.4	4.019
446.6	4.133
446.8	4.091
447.0	4.227
447.2	4.568
447.4	4.664
447.6	4.656
447.8	4.411
448.0	4.169
448.2	4.208
448.4	4.582
448.6	4.912
448.8	4.959
449.0	4.911
449.2	4.750
449.4	4.896
449.6	5.038
449.8	5.216
450.0	5.108
450.2	4.920
450.4	5.069
450.6	5.322
450.8	5.289
451.0	5.424
451.2	5.481
451.4	5.310
451.6	5.414
451.8	5.534
452.0	5.412
452.2	5.201
452.4	5.217
452.6	5.120
452.8	5.159
453.0	5.281
453.2	5.179
453.4	5.284
453.6	5.617
453.8	5.718
454.0	6.078
454.2	6.155
454.4	5.812
454.6	5.869
454.8	6.136
455.0	6.183
455.2	6.314
455.4	6.285
455.6	6.148
455.8	6.273
456.0	6.759
456.2	7.016
456.4	7.167
456.6	7.126
456.8	7.284
457.0	7.300
457.2	7.471
457.4	7.642
457.6	7.828
457.8	7.717
458.0	7.714
458.2	7.563
458.4	7.621
458.6	8.084
458.8	8.388
459.0	8.326
459.2	7.867
459.4	8.001
459.6	8.265
459.8	8.875
460.0	9.238
460.2	9.061
460.4	8.843
460.6	9.000
460.8	9.062
461.0	9.457
461.2	9.938
461.4	10.06
461.6	10.55
461.8	10.85
462.0	10.82
462.2	10.91
462.4	11.26
462.6	11.14
462.8	11.66
463.0	12.02
463.2	12.38
463.4	12.68
463.6	13.07
463.8	13.03
464.0	13.25
464.2	13.36
464.4	13.55
464.6	13.94
464.8	14.40
465.0	15.18
465.2	15.49
465.4	15.52
465.6	15.42
465.8	15.89
466.0	16.50
466.2	17.72
466.4	18.34
466.6	18.19
466.8	18.01
467.0	18.09
467.2	18.30
467.4	18.62
467.6	18.86
467.8	19.74
468.0	20.59
468.2	21.18
468.4	22.01
468.6	22.40
468.8	22.56
469.0	23.36
469.2	23.86
469.4	24.47
469.6	25.28
469.8	26.11
470.0	26.79
470.2	27.27
470.4	27.43
470.6	28.97
470.8	29.43
471.0	30.24
471.2	31.64
471.4	33.11
471.6	33.94
471.8	35.04
472.0	34.44
472.2	34.72
472.4	35.79
472.6	37.78
472.8	40.00
473.0	41.63
473.2	42.42
473.4	42.83
473.6	43.07
473.8	44.30
474.0	45.67
474.2	47.63
474.4	49.04
474.6	50.40
474.8	51.71
475.0	53.29
475.2	54.80
475.4	56.72
475.6	58.13
475.8	59.69
476.0	61.51
476.2	62.98
476.4	65.12
476.6	67.39
476.8	69.24
477.0	71.22
477.2	73.96
477.4	75.67
477.6	77.75
477.8	79.93
478.0	82.46
478.2	84.65
478.4	86.44
478.6	87.40
478.8	88.82
479.0	92.12
479.2	95.36
479.4	98.40
479.6	101.1
479.8	103.2
480.0	106.9
480.2	112.2
480.4	116.1
480.6	119.7
480.8	121.0
481.0	122.2
481.2	124.8
481.4	130.0
481.6	136.5
481.8	141.7
482.0	145.2
482.2	146.9
482.4	149.6
482.6	153.5
482.8	158.2
483.0	161.9
483.2	165.7
483.4	171.9
483.6	177.2
483.8	183.8
484.0	188.4
484.2	192.6
484.4	197.2
484.6	205.6
484.8	210.3
485.0	216.9
485.2	220.8
485.4	227.7
485.6	233.7
485.8	240.1
486.0	244.8
486.2	249.2
486.4	255.4
486.6	263.6
486.8	269.9
487.0	278.0
487.2	283.6
487.4	289.4
487.6	297.3
487.8	304.9
488.0	314.4
488.2	324.7
488.4	333.9
488.6	341.3
488.8	348.4
489.0	355.4
489.2	365.2
489.4	375.0
489.6	385.3
489.8	393.7
490.0	403.1
490.2	410.9
490.4	422.0
490.6	432.2
490.8	444.0
491.0	456.0
491.2	466.0
491.4	475.1
491.6	489.6
491.8	501.5
492.0	515.8
492.2	529.5
492.4	538.3
492.6	548.5
492.8	561.7
493.0	573.2
493.2	586.8
493.4	599.7
493.6	611.1
493.8	625.0
494.0	638.8
494.2	653.1
494.4	669.5
494.6	684.4
494.8	699.6
495.0	715.1
495.2	730.0
495.4	742.7
495.6	759.4
495.8	774.5
496.0	790.4
496.2	808.1
496.4	825.1
496.6	842.5
496.8	864.4
497.0	881.2
497.2	894.6
497.4	910.6
497.6	922.9
497.8	938.6
498.0	961.7
498.2	983.3
498.4	1003
498.6	1024
498.8	1041
499.0	1057
499.2	1079
499.4	1103
499.6	1129
499.8	1153
500.0	1174
500.2	1191
500.4	1205
500.6	1225
500.8	1245
501.0	1265
501.2	1288
501.4	1315
501.6	1340
501.8	1367
502.0	1393
502.2	1416
502.4	1437
502.6	1466
502.8	1489
503.0	1510
503.2	1534
503.4	1557
503.6	1582
503.8	1612
504.0	1642
504.2	1673
504.4	1704
504.6	1726
504.8	1749
505.0	1771
505.2	1795
505.4	1825
505.6	1855
505.8	1883
506.0	1917
506.2	1952
506.4	1983
506.6	2010
506.8	2035
507.0	2060
507.2	2080
507.4	2108
507.6	2137
507.8	2170
508.0	2209
508.2	2244
508.4	2266
508.6	2296
508.8	2321
509.0	2355
509.2	2390
509.4	2423
509.6	2458
509.8	2492
510.0	2525
510.2	2558
510.4	2582
510.6	2608
510.8	2639
511.0	2673
511.2	2709
511.4	2739
511.6	2769
511.8	2800
512.0	2831
512.2	2867
512.4	2897
512.6	2929
512.8	2962
513.0	2996
513.2	3027
513.4	3060
513.6	3096
513.8	3136
514.0	3168
514.2	3210
514.4	3239
514.6	3271
514.8	3304
515.0	3334
515.2	3365
515.4	3403
515.6	3434
515.8	3474
516.0	3516
516.2	3549
516.4	3583
516.6	3613
516.8	3643
517.0	3679
517.2	3715
517.4	3745
517.6	3774
517.8	3810
518.0	3833
518.2	3871
518.4	3903
518.6	3937
518.8	3967
519.0	4004
519.2	4039
519.4	4085
519.6	4112
519.8	4143
520.0	4172
520.2	4204
520.4	4250
520.6	4283
520.8	4313
521.0	4348
521.2	4382
521.4	4412
521.6	4443
521.8	4473
522.0	4504
522.2	4538
522.4	4573
522.6	4601
522.8	4627
523.0	4658
523.2	4691
523.4	4727
523.6	4759
523.8	4790
524.0	4821
524.2	4851
524.4	4889
524.6	4927
524.8	4957
525.0	4991
525.2	5016
525.4	5044
525.6	5072
525.8	5101
526.0	5123
526.2	5148
526.4	5178
526.6	5218
526.8	5254
527.0	5285
527.2	5310
527.4	5325
527.6	5352
527.8	5384
528.0	5413
528.2	5444
528.4	5468
528.6	5482
528.8	5507
529.0	5530
529.2	5552
529.4	5580
529.6	5598
529.8	5626
530.0	5655
530.2	5679
530.4	5708
530.6	5739
530.8	5772
531.0	5803
531.2	5818
531.4	5832
531.6	5850
531.8	5865
532.0	5896
532.2	5922
532.4	5941
532.6	5964
532.8	5986
533.0	6002
533.2	6029
533.4	6060
533.6	6078
533.8	6096
534.0	6110
534.2	6128
534.4	6153
534.6	6179
534.8	6195
535.0	6204
535.2	6208
535.4	6228
535.6	6258
535.8	6292
536.0	6318
536.2	6323
536.4	6330
536.6	6347
536.8	6363
537.0	6387
537.2	6400
537.4	6411
537.6	6423
537.8	6436
538.0	6447
538.2	6467
538.4	6480
538.6	6497
538.8	6512
539.0	6526
539.2	6536
539.4	6549
539.6	6549
539.8	6556
540.0	6567
540.2	6584
540.4	6598
540.6	6612
540.8	6622
541.0	6628
541.2	6630
541.4	6637
541.6	6652
541.8	6674
542.0	6690
542.2	6689
542.4	6693
542.6	6692
542.8	6699
543.0	6711
543.2	6716
543.4	6727
543.6	6742
543.8	6755
544.0	6763
544.2	6763
544.4	6765
544.6	6776
544.8	6779
545.0	6776
545.2	6778
545.4	6774
545.6	6779
545.8	6781
546.0	6787
546.2	6779
546.4	6783
546.6	6788
546.8	6800
547.0	6800
547.2	6812
547.4	6815
547.6	6824
547.8	6827
548.0	6816
548.2	6801
548.4	6787
548.6	6782
548.8	6802
549.0	6822
549.2	6818
549.4	6824
549.6	6814
549.8	6803
550.0	6812
550.2	6818
550.4	6824
550.6	6834
550.8	6831
551.0	6817
551.2	6798
551.4	6785
551.6	6791
551.8	6791
552.0	6790
552.2	6787
552.4	6780
552.6	6790
552.8	6795
553.0	6789
553.2	6772
553.4	6758
553.6	6745
553.8	6737
554.0	6733
554.2	6728
554.4	6723
554.6	6727
554.8	6726
555.0	6717
555.2	6708
555.4	6697
555.6	6688
555.8	6683
556.0	6667
556.2	6655
556.4	6646
556.6	6646
556.8	6640
557.0	6643
557.2	6620
557.4	6626
557.6	6621
557.8	6618
558.0	6608
558.2	6600
558.4	6584
558.6	6580
558.8	6562
559.0	6544
559.2	6529
559.4	6513
559.6	6512
559.8	6495
560.0	6492
560.2	6479
560.4	6473
560.6	6461
560.8	6455
561.0	6435
561.2	6424
561.4	6407
561.6	6406
561.8	6399
562.0	6380
562.2	6367
562.4	6353
562.6	6344
562.8	6340
563.0	6332
563.2	6306
563.4	6293
563.6	6274
563.8	6258
564.0	6237
564.2	6225
564.4	6223
564.6	6226
564.8	6221
565.0	6208
565.2	6187
565.4	6167
565.6	6152
565.8	6131
566.0	6119
566.2	6102
566.4	6096
566.6	6087
566.8	6069
567.0	6046
567.2	6034
567.4	6012
567.6	6002
567.8	5986
568.0	5973
568.2	5962
568.4	5949
568.6	5936
568.8	5929
569.0	5921
569.2	5908
569.4	5896
569.6	5880
569.8	5855
570.0	5835
570.2	5821
570.4	5799
570.6	5783
570.8	5772
571.0	5753
571.2	5745
571.4	5725
571.6	5703
571.8	5687
572.0	5675
572.2	5666
572.4	5661
572.6	5630
572.8	5607
573.0	5588
573.2	5569
573.4	5556
573.6	5539
573.8	5514
574.0	5506
574.2	5496
574.4	5489
574.6	5482
574.8	5463
575.0	5433
575.2	5415
575.4	5401
575.6	5384
575.8	5371
576.0	5360
576.2	5339
576.4	5327
576.6	5320
576.8	5302
577.0	5283
577.2	5263
577.4	5242
577.6	5229
577.8	5217
578.0	5193
578.2	5169
578.4	5152
578.6	5136
578.8	5126
579.0	5116
579.2	5094
579.4	5074
579.6	5059
579.8	5041
580.0	5021
580.2	5011
580.4	4995
580.6	4982
580.8	4964
581.0	4944
581.2	4919
581.4	4903
581.6	4881
581.8	4871
582.0	4852
582.2	4834
582.4	4815
582.6	4800
582.8	4782
583.0	4766
583.2	4746
583.4	4728
583.6	4715
583.8	4700
584.0	4689
584.2	4673
584.4	4650
584.6	4634
584.8	4621
585.0	4603
585.2	4592
585.4	4580
585.6	4556
585.8	4534
586.0	4507
586.2	4491
586.4	4484
586.6	4472
586.8	4457
587.0	4433
587.2	4412
587.4	4397
587.6	4385
587.8	4371
588.0	4359
588.2	4337
588.4	4317
588.6	4288
588.8	4276
589.0	4262
589.2	4257
589.4	4244
589.6	4229
589.8	4210
590.0	4200
590.2	4177
590.4	4166
590.6	4143
590.8	4127
591.0	4116
591.2	4103
591.4	4084
591.6	4062
591.8	4039
592.0	4025
592.2	4011
592.4	4002
592.6	3985
592.8	3957
593.0	3939
593.2	3929
593.4	3918
593.6	3904
593.8	3886
594.0	3874
594.2	3859
594.4	3849
594.6	3832
594.8	3807
595.0	3786
595.2	3776
595.4	3759
595.6	3735
595.8	3715
596.0	3699
596.2	3686
596.4	3670
596.6	3659
596.8	3642
597.0	3637
597.2	3632
597.4	3617
597.6	3597
597.8	3585
598.0	3566
598.2	3553
598.4	3541
598.6	3523
598.8	3504
599.0	3487
599.2	3474
599.4	3462
599.6	3449
599.8	3440
600.0	3419
600.2	3399
600.4	3391
600.6	3380
600.8	3362
601.0	3343
601.2	3326
601.4	3314
601.6	3305
601.8	3291
602.0	3268
602.2	3239
602.4	3225
602.6	3217
602.8	3212
603.0	3202
603.2	3191
603.4	3171
603.6	3151
603.8	3136
604.0	3120
604.2	3107
604.4	3090
604.6	3075
604.8	3062
605.0	3047
605.2	3029
605.4	3019
605.6	3003
605.8	2989
606.0	2981
606.2	2960
606.4	2955
606.6	2948
606.8	2936
607.0	2917
607.2	2897
607.4	2871
607.6	2865
607.8	2855
608.0	2844
608.2	2825
608.4	2812
608.6	2797
608.8	2787
609.0	2772
609.2	2758
609.4	2738
609.6	2728
609.8	2717
610.0	2706
610.2	2696
610.4	2683
610.6	2670
610.8	2654
611.0	2639
611.2	2620
611.4	2610
611.6	2598
611.8	2587
612.0	2578
612.2	2567
612.4	2549
612.6	2536
612.8	2522
613.0	2505
613.2	2497
613.4	2489
613.6	2481
613.8	2469
614.0	2453
614.2	2431
614.4	2418
614.6	2409
614.8	2404
615.0	2390
615.2	2382
615.4	2372
615.6	2356
615.8	2340
616.0	2327
616.2	2313
616.4	2299
616.6	2289
616.8	2277
617.0	2265
617.2	2260
617.4	2254
617.6	2236
617.8	2223
618.0	2206
618.2	2190
618.4	2180
618.6	2172
618.8	2165
619.0	2159
619.2	2148
619.4	2130
619.6	2112
619.8	2091
620.0	2082
620.2	2071
620.4	2064
620.6	2053
620.8	2047
621.0	2037
621.2	2032
621.4	2014
621.6	2001
621.8	1992
622.0	1983
622.2	1973
622.4	1961
622.6	1945
622.8	1935
623.0	1927
623.2	1917
623.4	1905
623.6	1896
623.8	1888
624.0	1878
624.2	1865
624.4	1848
624.6	1833
624.8	1826
625.0	1824
625.2	1813
625.4	1803
625.6	1791
625.8	1780
626.0	1768
626.2	1755
626.4	1747
626.6	1741
626.8	1733
627.0	1722
627.2	1708
627.4	1698
627.6	1692
627.8	1683
628.0	1671
628.2	1654
628.4	1641
628.6	1633
628.8	1623
629.0	1614
629.2	1607
629.4	1599
629.6	1594
629.8	1587
630.0	1578
630.2	1569
630.4	1559
630.6	1549
630.8	1539
631.0	1525
631.2	1510
631.4	1504
631.6	1505
631.8	1500
632.0	1492
632.2	1481
632.4	1465
632.6	1455
632.8	1446
633.0	1439
633.2	1428
633.4	1420
633.6	1408
633.8	1401
634.0	1392
634.2	1389
634.4	1379
634.6	1374
634.8	1366
635.0	1357
635.2	1346
635.4	1333
635.6	1325
635.8	1323
636.0	1320
636.2	1313
636.4	1303
636.6	1291
636.8	1287
637.0	1283
637.2	1277
637.4	1267
637.6	1261
637.8	1250
638.0	1244
638.2	1237
638.4	1228
638.6	1218
638.8	1205
639.0	1194
639.2	1187
639.4	1183
639.6	1180
639.8	1176
640.0	1167
640.2	1161
640.4	1154
640.6	1151
640.8	1142
641.0	1133
641.2	1128
641.4	1122
641.6	1115
641.8	1112
642.0	1103
642.2	1095
642.4	1088
642.6	1084
642.8	1076
643.0	1068
643.2	1061
643.4	1052
643.6	1043
643.8	1041
644.0	1034
644.2	1026
644.4	1020
644.6	1013
644.8	1004
645.0	1001
645.2	992.6
645.4	986.1
645.6	981.2
645.8	975.1
646.0	966.8
646.2	960.3
646.4	951.9
646.6	948.7
646.8	947.5
647.0	944.6
647.2	938.0
647.4	929.4
647.6	924.7
647.8	919.6
648.0	912.2
648.2	904.7
648.4	896.0
648.6	889.2
648.8	887.1
649.0	883.0
649.2	875.2
649.4	869.0
649.6	863.5
649.8	858.5
650.0	853.8
650.2	846.1
650.4	838.4
650.6	834.3
650.8	830.7
651.0	828.7
651.2	827.9
651.4	818.4
651.6	808.0
651.8	801.3
652.0	797.6
652.2	792.3
652.4	790.0
652.6	785.9
652.8	781.9
653.0	777.6
653.2	776.4
653.4	767.6
653.6	761.8
653.8	758.9
654.0	753.8
654.2	747.4
654.4	743.8
654.6	736.1
654.8	732.2
655.0	728.5
655.2	722.0
655.4	717.5
655.6	711.0
655.8	703.9
656.0	699.1
656.2	697.1
656.4	692.0
656.6	689.3
656.8	686.6
657.0	681.2
657.2	676.1
657.4	674.3
657.6	670.2
657.8	664.2
658.0	660.0
658.2	654.0
658.4	651.6
658.6	651.0
658.8	649.8
659.0	644.1
659.2	637.1
659.4	628.8
659.6	623.8
659.8	619.6
660.0	615.6
660.2	611.8
660.4	609.8
660.6	603.4
660.8	600.9
661.0	596.6
661.2	591.7
661.4	587.6
661.6	586.2
661.8	583.3
662.0	582.6
662.2	578.8
662.4	572.9
662.6	565.0
662.8	560.2
663.0	558.5
663.2	555.5
663.4	552.1
663.6	547.1
663.8	542.6
664.0	537.4
664.2	534.5
664.4	531.5
664.6	527.5
664.8	526.3
665.0	526.8
665.2	522.6
665.4	519.2
665.6	515.1
665.8	509.2
666.0	504.0
666.2	501.1
666.4	495.7
666.6	492.3
666.8	489.3
667.0	487.7
667.2	486.4
667.4	487.0
667.6	483.4
667.8	480.2
668.0	474.5
668.2	470.2
668.4	466.9
668.6	463.3
668.8	459.9
669.0	458.0
669.2	457.2
669.4	453.3
669.6	450.2
669.8	445.4
670.0	439.7
670.2	435.6
670.4	434.5
670.6	429.7
670.8	428.7
671.0	426.4
671.2	420.6
671.4	416.9
671.6	415.4
671.8	413.9
672.0	413.9
672.2	411.9
672.4	406.1
672.6	402.6
672.8	399.3
673.0	396.7
673.2	395.7
673.4	395.1
673.6	391.4
673.8	390.0
674.0	387.7
674.2	382.8
674.4	378.7
674.6	375.8
674.8	371.7
675.0	371.5
675.2	370.4
675.4	368.8
675.6	366.6
675.8	363.4
676.0	360.1
676.2	354.7
676.4	350.9
676.6	349.0
676.8	347.7
677.0	346.1
677.2	343.9
677.4	340.9
677.6	341.6
677.8	339.5
678.0	335.1
678.2	330.3
678.4	325.0
678.6	324.0
678.8	324.0
679.0	322.6
679.2	319.7
679.4	319.8
679.6	320.2
679.8	318.7
680.0	315.9
680.2	313.0
680.4	309.0
680.6	306.6
680.8	305.4
681.0	303.4
681.2	302.6
681.4	300.2
681.6	296.5
681.8	291.7
682.0	289.5
682.2	289.1
682.4	288.8
682.6	287.4
682.8	285.5
683.0	284.4
683.2	283.0
683.4	281.7
683.6	279.0
683.8	275.4
684.0	272.6
684.2	272.6
684.4	269.5
684.6	268.0
684.8	264.8
685.0	262.1
685.2	259.6
685.4	260.1
685.6	257.6
685.8	256.9
686.0	254.6
686.2	252.0
686.4	248.4
686.6	248.4
686.8	247.7
687.0	246.3
687.2	245.1
687.4	241.7
687.6	239.4
687.8	239.7
688.0	239.2
688.2	236.8
688.4	234.8
688.6	231.4
688.8	230.5
689.0	229.6
689.2	228.5
689.4	227.3
689.6	228.2
689.8	226.8
690.0	226.0
690.2	222.7
690.4	219.7
690.6	216.3
690.8	215.8
691.0	213.3
691.2	213.4
691.4	212.3
691.6	210.9
691.8	208.1
692.0	206.1
692.2	203.8
692.4	203.9
692.6	202.9
692.8	200.8
693.0	199.8
693.2	198.7
693.4	197.9
693.6	197.6
693.8	196.5
694.0	195.2
694.2	194.3
694.4	192.3
694.6	190.3
694.8	187.5
695.0	184.6
695.2	183.3
695.4	182.8
695.6	182.4
695.8	183.0
696.0	183.6
696.2	184.8
696.4	185.0
696.6	181.9
696.8	178.5
697.0	175.1
697.2	174.2
697.4	175.0
697.6	174.5
697.8	170.8
698.0	170.2
698.2	169.3
698.4	169.1
698.6	168.6
698.8	167.3
699.0	164.2
699.2	163.6
699.4	163.9
699.6	162.4
699.8	163.9
700.0	165.2
700.2	163.9
700.4	163.3
700.6	161.5
700.8	157.1
701.0	155.8
701.2	155.9
701.4	155.2
701.6	155.2
701.8	155.0
702.0	152.2
702.2	150.6
702.4	149.2
702.6	147.8
702.8	147.2
703.0	147.4
703.2	145.5
703.4	146.1
703.6	144.3
703.8	142.9
704.0	142.6
704.2	142.2
704.4	141.7
704.6	142.0
704.8	140.0
705.0	139.7
705.2	138.7
705.4	137.6
705.6	137.2
705.8	135.8
706.0	134.2
706.2	134.0
706.4	132.5
706.6	131.0
706.8	130.3
707.0	128.6
707.2	127.7
707.4	126.6
707.6	126.3
707.8	126.2
708.0	126.7
708.2	125.3
708.4	125.3
708.6	125.4
708.8	125.3
709.0	125.2
709.2	124.4
709.4	122.0
709.6	120.7
709.8	118.8
710.0	118.0
710.2	116.5
710.4	115.4
710.6	114.0
710.8	114.5
711.0	114.4
711.2	115.0
711.4	114.3
711.6	114.2
711.8	112.4
712.0	111.6
712.2	110.0
712.4	109.4
712.6	108.8
712.8	109.1
713.0	108.9
713.2	107.8
713.4	107.6
713.6	108.3
713.8	106.4
714.0	104.5
714.2	104.1
714.4	102.6
714.6	103.0
714.8	102.9
715.0	102.4
715.2	100.9
715.4	99.51
715.6	97.61
715.8	96.51
716.0	96.97
716.2	98.07
716.4	97.71
716.6	96.40
716.8	95.83
717.0	94.02
717.2	93.37
717.4	92.62
717.6	91.40
717.8	91.29
718.0	92.05
718.2	91.22
718.4	89.59
718.6	89.00
718.8	88.28
719.0	88.40
719.2	89.38
719.4	88.76
719.6	86.96
719.8	85.86
720.0	84.52
720.2	83.69
720.4	83.80
720.6	83.35
720.8	83.02
721.0	82.86
721.2	81.26
721.4	79.76
721.6	78.93
721.8	79.13
722.0	78.52
722.2	78.46
722.4	76.87
722.6	75.85
722.8	75.68
723.0	75.96
723.2	75.78
723.4	74.97
723.6	73.88
723.8	73.82
724.0	73.59
724.2	73.09
724.4	72.53
724.6	71.52
724.8	70.79
725.0	70.68
725.2	70.38
725.4	69.57
725.6	69.18
725.8	68.93
726.0	68.82
726.2	68.33
726.4	67.60
726.6	66.56
726.8	66.57
727.0	66.19
727.2	66.72
727.4	65.85
727.6	64.19
727.8	62.31
728.0	61.28
728.2	60.83
728.4	61.27
728.6	61.88
728.8	61.92
729.0	62.05
729.2	60.99
729.4	60.98
729.6	59.93
729.8	59.56
730.0	58.64
730.2	58.17
730.4	58.06
730.6	58.49
730.8	58.47
731.0	58.68
731.2	57.56
731.4	56.75
731.6	56.47
731.8	55.23
732.0	55.39
732.2	54.83
732.4	54.01
732.6	53.76
732.8	52.95
733.0	51.76
733.2	51.62
733.4	51.16
733.6	51.48
733.8	51.43
734.0	50.48
734.2	50.09
734.4	50.04
734.6	50.83
734.8	51.48
735.0	50.47
735.2	48.73
735.4	47.00
735.6	45.39
735.8	45.86
736.0	46.26
736.2	46.57
736.4	46.57
736.6	46.57
736.8	45.81
737.0	45.82
737.2	45.32
737.4	44.33
737.6	43.50
737.8	43.69
738.0	43.58
738.2	43.97
738.4	43.67
738.6	42.99
738.8	42.20
739.0	42.18
739.2	41.42
739.4	41.23
739.6	40.13
739.8	39.80
740.0	40.23
740.2	41.15
740.4	40.97
740.6	40.82
740.8	39.85
741.0	39.07
741.2	39.12
741.4	39.24
741.6	39.29
741.8	38.97
742.0	38.79
742.2	38.15
742.4	38.01
742.6	37.99
742.8	37.76
743.0	36.80
743.2	36.24
743.4	36.19
743.6	35.85
743.8	35.65
744.0	35.83
744.2	34.79
744.4	34.47
744.6	34.80
744.8	33.72
745.0	33.22
745.2	33.29
745.4	33.25
745.6	33.42
745.8	34.13
746.0	33.33
746.2	32.79
746.4	32.49
746.6	32.49
746.8	32.33
747.0	32.29
747.2	31.82
747.4	31.22
747.6	30.55
747.8	29.95
748.0	29.78
748.2	29.92
748.4	31.18
748.6	31.50
748.8	31.02
749.0	29.98
749.2	29.58
749.4	29.45
749.6	29.52
749.8	28.92
750.0	28.72
750.2	28.76
750.4	29.08
750.6	29.24
750.8	28.76
751.0	28.16
751.2	28.17
751.4	28.52
751.6	28.25
751.8	27.80
752.0	26.91
752.2	27.06
752.4	26.95
752.6	26.96
752.8	26.43
753.0	25.98
753.2	25.18
753.4	26.10
753.6	26.12
753.8	25.68
754.0	24.73
754.2	23.87
754.4	23.06
754.6	23.57
754.8	24.26
755.0	24.54
755.2	24.78
755.4	23.77
755.6	22.77
755.8	22.21
756.0	22.12
756.2	22.54
756.4	23.25
756.6	23.29
756.8	23.18
757.0	23.27
757.2	22.72
757.4	22.98
757.6	22.81
757.8	22.61
758.0	22.54
758.2	22.13
758.4	21.84
758.6	21.99
758.8	21.75
759.0	21.48
759.2	21.35
759.4	20.63
759.6	20.23
759.8	19.71
760.0	19.09
760.2	19.41
760.4	19.97
760.6	20.81
760.8	20.89
761.0	20.43
761.2	19.83
761.4	19.32
761.6	19.40
761.8	19.47
762.0	19.11
762.2	18.87
762.4	19.04
762.6	19.20
762.8	19.36
763.0	18.92
763.2	18.20
763.4	17.65
763.6	17.50
763.8	17.86
764.0	18.13
764.2	17.94
764.4	17.76
764.6	17.49
764.8	17.19
765.0	17.30
765.2	17.64
765.4	17.81
765.6	17.93
765.8	17.65
766.0	17.23
766.2	16.95
766.4	16.87
766.6	16.94
766.8	16.42
767.0	16.14
767.2	15.89
767.4	15.98
767.6	16.37
767.8	16.62
768.0	16.15
768.2	15.94
768.4	15.26
768.6	14.91
768.8	14.74
769.0	15.15
769.2	14.97
769.4	15.06
769.6	14.64
769.8	14.27
770.0	14.08
770.2	14.42
770.4	14.15
770.6	14.61
770.8	14.15
771.0	14.10
771.2	14.15
771.4	13.80
771.6	13.88
771.8	14.03
772.0	13.60
772.2	13.93
772.4	14.06
772.6	13.73
772.8	13.52
773.0	13.57
773.2	13.52
773.4	13.65
773.6	13.71
773.8	13.23
774.0	12.56
774.2	12.84
774.4	13.20
774.6	13.51
774.8	13.65
775.0	13.02
775.2	12.34
775.4	11.91
775.6	12.36
775.8	12.65
776.0	12.94
776.2	12.52
776.4	11.98
776.6	11.62
776.8	11.75
777.0	12.18
777.2	12.21
777.4	11.98
777.6	11.53
777.8	10.96
778.0	11.00
778.2	11.45
778.4	11.32
778.6	11.94
778.8	12.07
779.0	11.99
779.2	11.56
779.4	11.35
779.6	10.99
779.8	11.08
780.0	11.42
780.2	11.59
780.4	11.56
780.6	11.69
780.8	11.27
781.0	11.12
781.2	10.97
781.4	10.88
781.6	10.93
781.8	10.52
782.0	10.37
782.2	10.64
782.4	10.63
782.6	10.84
782.8	10.74
783.0	10.61
783.2	10.52
783.4	10.49
783.6	10.28
783.8	10.13
784.0	10.08
784.2	10.10
784.4	10.03
784.6	10.32
784.8	10.59
785.0	10.68
785.2	10.67
785.4	10.28
785.6	9.901
785.8	9.328
786.0	9.555
786.2	10.12
786.4	10.37
786.6	10.29
786.8	10.05
787.0	9.529
787.2	9.549
787.4	9.688
787.6	9.523
787.8	9.272
788.0	9.335
788.2	9.537
788.4	9.609
788.6	9.954
788.8	10.12
789.0	9.968
789.2	9.786
789.4	9.661
789.6	9.588
789.8	9.864
790.0	9.606
790.2	9.357
790.4	9.201
790.6	9.211
790.8	9.610
791.0	9.757
791.2	9.524
791.4	9.740
791.6	9.677
791.8	9.572
792.0	9.947
792.2	10.23
792.4	10.66
792.6	10.88
792.8	10.52
793.0	10.21
793.2	9.989
793.4	9.900
793.6	9.704
793.8	9.084
794.0	8.828
794.2	9.436
794.4	9.791
794.6	10.04
794.8	9.590
795.0	9.569
795.2	9.604
795.4	10.11
795.6	9.893
795.8	9.944
796.0	9.938
796.2	10.47
796.4	10.64
796.6	10.77
796.8	10.06
797.0	9.603
797.2	9.644
797.4	9.430
797.6	9.478
797.8	9.915
798.0	10.09
798.2	10.04
798.4	10.11
798.6	9.702
798.8	9.463
799.0	9.478
799.2	9.860
799.4	9.829
799.6	9.751
799.8	9.491
800.0	9.001

