Sample:	'20211010A(EM)
File name:	G-NI 7.FDS
Run date:	'19:33:55, 06/19/2023
Operator:	Administrator
Comment:	'

Instrument
Model:	F-4700 FL Spectrophotometer
Serial number:	2019-001
ROM Version:	5J24010 00

Instrument parameters
Measurement type:	Wavelength scan
Scan mode:	Emission
Data mode:	Fluorescence
EX WL:	400.0 nm
EM  Start WL:	420.0 nm
EM  End WL:	800.0 nm
Scan speed:	1200 nm/min
Delay:	0.0 s
EX Slit:	10.0 nm
EM Slit:	10.0 nm
PMT Voltage:	500 V
Response:	0.002 s
Corrected spectra:	Off
Shutter control:	On

Processing performed
Savitsky-Golay smoothed
Smoothing order:	3
Number of points:	7
Number of times:	1

Peak integration
Integration method:	Rectangular
Sensitivity:	1
Threshold:	1.000

Peaks
No.	Start(nm)	Apex(nm)	End(nm)	Height(Data)	Valley(nm)	Valley(Data)
1	420.0	536.8	538.2	2121	538.2	2109
2	538.2	541.2	544.4	2125	544.4	2095
3	544.4	544.8	691.8	2106	691.8	59.99
4	691.8	692.6	715.8	61.50	715.8	29.87
5	715.8	716.4	730.2	31.49	730.2	17.78
6	730.2	731.0	745.6	19.26	745.6	10.34
7	745.6	747.0	755.0	11.62	755.0	7.893
8	755.0	755.8	800.0	8.940	800.0	3.481

Data points
nm	Data
420.0	1.383
420.2	1.603
420.4	1.629
420.6	1.519
420.8	1.265
421.0	1.211
421.2	1.024
421.4	1.006
421.6	1.207
421.8	1.377
422.0	1.405
422.2	1.461
422.4	1.299
422.6	1.090
422.8	1.121
423.0	1.092
423.2	1.197
423.4	1.256
423.6	1.276
423.8	1.199
424.0	1.386
424.2	1.384
424.4	1.595
424.6	1.491
424.8	1.407
425.0	1.299
425.2	1.315
425.4	1.188
425.6	1.161
425.8	1.076
426.0	1.067
426.2	1.141
426.4	1.263
426.6	1.410
426.8	1.362
427.0	1.227
427.2	1.129
427.4	1.057
427.6	1.075
427.8	1.294
428.0	1.291
428.2	1.127
428.4	1.147
428.6	1.153
428.8	1.129
429.0	1.324
429.2	1.523
429.4	1.573
429.6	1.683
429.8	1.586
430.0	1.354
430.2	1.185
430.4	1.245
430.6	1.386
430.8	1.445
431.0	1.429
431.2	1.375
431.4	1.287
431.6	1.374
431.8	1.599
432.0	1.643
432.2	1.531
432.4	1.426
432.6	1.425
432.8	1.322
433.0	1.299
433.2	1.391
433.4	1.213
433.6	1.223
433.8	1.348
434.0	1.402
434.2	1.482
434.4	1.608
434.6	1.438
434.8	1.570
435.0	1.450
435.2	1.570
435.4	1.645
435.6	1.444
435.8	1.325
436.0	1.418
436.2	1.260
436.4	1.391
436.6	1.559
436.8	1.504
437.0	1.550
437.2	1.420
437.4	1.352
437.6	1.195
437.8	1.430
438.0	1.577
438.2	1.673
438.4	1.612
438.6	1.554
438.8	1.318
439.0	1.348
439.2	1.396
439.4	1.365
439.6	1.256
439.8	1.232
440.0	1.224
440.2	1.278
440.4	1.445
440.6	1.470
440.8	1.334
441.0	1.359
441.2	1.451
441.4	1.519
441.6	1.444
441.8	1.487
442.0	1.378
442.2	1.415
442.4	1.569
442.6	1.642
442.8	1.555
443.0	1.712
443.2	1.695
443.4	1.702
443.6	1.608
443.8	1.488
444.0	1.235
444.2	1.408
444.4	1.387
444.6	1.674
444.8	1.722
445.0	1.682
445.2	1.651
445.4	1.712
445.6	1.563
445.8	1.674
446.0	1.530
446.2	1.478
446.4	1.598
446.6	1.621
446.8	1.505
447.0	1.323
447.2	1.285
447.4	1.387
447.6	1.568
447.8	1.691
448.0	1.726
448.2	1.493
448.4	1.491
448.6	1.443
448.8	1.389
449.0	1.387
449.2	1.464
449.4	1.326
449.6	1.529
449.8	1.563
450.0	1.589
450.2	1.618
450.4	1.528
450.6	1.473
450.8	1.686
451.0	1.656
451.2	1.535
451.4	1.337
451.6	1.225
451.8	1.290
452.0	1.470
452.2	1.553
452.4	1.629
452.6	1.646
452.8	1.626
453.0	1.669
453.2	1.637
453.4	1.536
453.6	1.430
453.8	1.470
454.0	1.524
454.2	1.655
454.4	1.742
454.6	1.758
454.8	1.780
455.0	1.879
455.2	1.834
455.4	1.681
455.6	1.520
455.8	1.458
456.0	1.602
456.2	1.711
456.4	1.642
456.6	1.725
456.8	1.846
457.0	1.908
457.2	1.967
457.4	1.876
457.6	1.667
457.8	1.685
458.0	1.748
458.2	1.758
458.4	1.925
458.6	2.059
458.8	2.036
459.0	2.115
459.2	2.164
459.4	2.028
459.6	2.061
459.8	1.990
460.0	1.996
460.2	2.273
460.4	2.315
460.6	2.177
460.8	2.009
461.0	1.825
461.2	1.869
461.4	1.970
461.6	1.915
461.8	1.995
462.0	1.961
462.2	2.145
462.4	2.449
462.6	2.512
462.8	2.366
463.0	2.390
463.2	2.391
463.4	2.581
463.6	2.736
463.8	2.674
464.0	2.362
464.2	2.333
464.4	2.398
464.6	2.534
464.8	2.548
465.0	2.688
465.2	2.460
465.4	2.466
465.6	2.646
465.8	2.889
466.0	3.030
466.2	3.140
466.4	3.044
466.6	3.155
466.8	3.363
467.0	3.464
467.2	3.487
467.4	3.308
467.6	3.357
467.8	3.490
468.0	3.542
468.2	3.685
468.4	3.842
468.6	3.748
468.8	3.991
469.0	4.254
469.2	4.361
469.4	4.449
469.6	4.495
469.8	4.223
470.0	4.258
470.2	4.633
470.4	4.941
470.6	5.256
470.8	5.507
471.0	5.565
471.2	5.695
471.4	5.910
471.6	5.819
471.8	6.071
472.0	5.983
472.2	6.294
472.4	6.791
472.6	7.541
472.8	7.843
473.0	8.492
473.2	8.318
473.4	8.407
473.6	8.552
473.8	8.800
474.0	8.934
474.2	9.741
474.4	10.23
474.6	10.57
474.8	10.63
475.0	10.07
475.2	10.08
475.4	10.57
475.6	11.68
475.8	12.47
476.0	13.32
476.2	13.53
476.4	14.00
476.6	13.85
476.8	14.57
477.0	15.01
477.2	15.86
477.4	16.30
477.6	16.89
477.8	17.15
478.0	18.00
478.2	18.80
478.4	19.71
478.6	20.25
478.8	21.11
479.0	22.11
479.2	23.13
479.4	24.12
479.6	24.93
479.8	25.25
480.0	25.96
480.2	26.68
480.4	27.51
480.6	28.89
480.8	30.43
481.0	31.75
481.2	33.51
481.4	34.21
481.6	34.36
481.8	36.07
482.0	37.13
482.2	38.46
482.4	39.42
482.6	40.35
482.8	41.46
483.0	44.10
483.2	45.51
483.4	47.77
483.6	49.04
483.8	50.46
484.0	52.45
484.2	54.93
484.4	56.32
484.6	58.84
484.8	60.60
485.0	61.72
485.2	62.96
485.4	64.90
485.6	66.81
485.8	70.20
486.0	73.12
486.2	75.99
486.4	78.51
486.6	81.01
486.8	83.85
487.0	86.70
487.2	88.63
487.4	91.43
487.6	94.22
487.8	97.93
488.0	101.4
488.2	103.8
488.4	106.3
488.6	109.7
488.8	113.6
489.0	118.3
489.2	121.7
489.4	124.3
489.6	128.0
489.8	132.3
490.0	137.0
490.2	141.2
490.4	144.5
490.6	148.5
490.8	152.4
491.0	156.6
491.2	161.2
491.4	165.1
491.6	168.7
491.8	175.9
492.0	182.9
492.2	190.4
492.4	195.3
492.6	200.2
492.8	203.1
493.0	208.5
493.2	213.4
493.4	221.3
493.6	225.8
493.8	234.0
494.0	241.4
494.2	247.7
494.4	252.3
494.6	258.5
494.8	265.2
495.0	274.0
495.2	282.5
495.4	289.8
495.6	297.0
495.8	302.8
496.0	309.4
496.2	315.1
496.4	320.5
496.6	326.8
496.8	335.7
497.0	344.8
497.2	355.6
497.4	365.5
497.6	373.7
497.8	381.8
498.0	388.1
498.2	397.6
498.4	405.8
498.6	414.3
498.8	422.3
499.0	430.4
499.2	437.3
499.4	450.9
499.6	459.8
499.8	471.0
500.0	482.1
500.2	490.8
500.4	499.6
500.6	508.7
500.8	518.1
501.0	531.1
501.2	545.2
501.4	556.2
501.6	563.5
501.8	570.3
502.0	581.8
502.2	595.0
502.4	608.6
502.6	619.1
502.8	626.8
503.0	637.7
503.2	650.1
503.4	663.6
503.6	675.1
503.8	688.0
504.0	700.4
504.2	713.6
504.4	727.3
504.6	742.3
504.8	752.0
505.0	762.6
505.2	770.3
505.4	779.2
505.6	790.8
505.8	801.1
506.0	814.8
506.2	829.2
506.4	841.6
506.6	859.1
506.8	875.1
507.0	888.9
507.2	901.6
507.4	912.5
507.6	923.4
507.8	933.5
508.0	947.8
508.2	962.9
508.4	975.3
508.6	988.4
508.8	1002
509.0	1010
509.2	1022
509.4	1034
509.6	1045
509.8	1057
510.0	1069
510.2	1086
510.4	1102
510.6	1119
510.8	1132
511.0	1144
511.2	1155
511.4	1168
511.6	1179
511.8	1191
512.0	1204
512.2	1219
512.4	1235
512.6	1252
512.8	1264
513.0	1272
513.2	1284
513.4	1298
513.6	1311
513.8	1329
514.0	1341
514.2	1350
514.4	1358
514.6	1374
514.8	1388
515.0	1403
515.2	1414
515.4	1421
515.6	1425
515.8	1434
516.0	1447
516.2	1463
516.4	1483
516.6	1498
516.8	1513
517.0	1520
517.2	1531
517.4	1542
517.6	1556
517.8	1572
518.0	1581
518.2	1588
518.4	1597
518.6	1601
518.8	1613
519.0	1624
519.2	1636
519.4	1650
519.6	1660
519.8	1671
520.0	1679
520.2	1684
520.4	1694
520.6	1706
520.8	1718
521.0	1729
521.2	1735
521.4	1740
521.6	1746
521.8	1760
522.0	1777
522.2	1792
522.4	1800
522.6	1800
522.8	1797
523.0	1800
523.2	1809
523.4	1825
523.6	1835
523.8	1849
524.0	1860
524.2	1872
524.4	1882
524.6	1888
524.8	1892
525.0	1904
525.2	1913
525.4	1922
525.6	1929
525.8	1925
526.0	1924
526.2	1931
526.4	1936
526.6	1946
526.8	1954
527.0	1962
527.2	1971
527.4	1979
527.6	1987
527.8	1991
528.0	1991
528.2	1997
528.4	2001
528.6	2001
528.8	2008
529.0	2013
529.2	2018
529.4	2022
529.6	2023
529.8	2026
530.0	2032
530.2	2037
530.4	2040
530.6	2042
530.8	2046
531.0	2052
531.2	2062
531.4	2071
531.6	2073
531.8	2072
532.0	2072
532.2	2071
532.4	2071
532.6	2072
532.8	2079
533.0	2078
533.2	2081
533.4	2086
533.6	2084
533.8	2085
534.0	2094
534.2	2095
534.4	2107
534.6	2111
534.8	2106
535.0	2106
535.2	2106
535.4	2106
535.6	2117
535.8	2117
536.0	2117
536.2	2118
536.4	2118
536.6	2119
536.8	2121
537.0	2120
537.2	2120
537.4	2118
537.6	2114
537.8	2111
538.0	2111
538.2	2109
538.4	2111
538.6	2117
538.8	2118
539.0	2121
539.2	2124
539.4	2123
539.6	2119
539.8	2121
540.0	2121
540.2	2123
540.4	2122
540.6	2124
540.8	2123
541.0	2123
541.2	2125
541.4	2122
541.6	2111
541.8	2108
542.0	2110
542.2	2108
542.4	2110
542.6	2109
542.8	2104
543.0	2104
543.2	2103
543.4	2102
543.6	2101
543.8	2098
544.0	2095
544.2	2096
544.4	2095
544.6	2103
544.8	2106
545.0	2101
545.2	2093
545.4	2091
545.6	2085
545.8	2089
546.0	2086
546.2	2078
546.4	2067
546.6	2068
546.8	2064
547.0	2069
547.2	2071
547.4	2070
547.6	2068
547.8	2062
548.0	2051
548.2	2049
548.4	2046
548.6	2049
548.8	2052
549.0	2048
549.2	2040
549.4	2036
549.6	2038
549.8	2036
550.0	2034
550.2	2031
550.4	2021
550.6	2015
550.8	2020
551.0	2014
551.2	2011
551.4	2005
551.6	1997
551.8	1999
552.0	2003
552.2	2001
552.4	1999
552.6	1992
552.8	1982
553.0	1981
553.2	1976
553.4	1972
553.6	1969
553.8	1967
554.0	1961
554.2	1962
554.4	1959
554.6	1956
554.8	1950
555.0	1945
555.2	1937
555.4	1933
555.6	1924
555.8	1918
556.0	1917
556.2	1918
556.4	1912
556.6	1905
556.8	1897
557.0	1895
557.2	1898
557.4	1899
557.6	1891
557.8	1883
558.0	1871
558.2	1870
558.4	1867
558.6	1863
558.8	1859
559.0	1854
559.2	1845
559.4	1843
559.6	1836
559.8	1830
560.0	1830
560.2	1827
560.4	1821
560.6	1816
560.8	1812
561.0	1810
561.2	1811
561.4	1806
561.6	1791
561.8	1782
562.0	1775
562.2	1773
562.4	1773
562.6	1771
562.8	1769
563.0	1769
563.2	1764
563.4	1755
563.6	1747
563.8	1739
564.0	1738
564.2	1738
564.4	1739
564.6	1733
564.8	1725
565.0	1716
565.2	1713
565.4	1711
565.6	1708
565.8	1699
566.0	1691
566.2	1686
566.4	1684
566.6	1682
566.8	1677
567.0	1665
567.2	1662
567.4	1659
567.6	1654
567.8	1652
568.0	1649
568.2	1639
568.4	1636
568.6	1626
568.8	1614
569.0	1604
569.2	1600
569.4	1601
569.6	1605
569.8	1606
570.0	1603
570.2	1590
570.4	1582
570.6	1573
570.8	1566
571.0	1566
571.2	1563
571.4	1557
571.6	1552
571.8	1542
572.0	1533
572.2	1527
572.4	1526
572.6	1524
572.8	1525
573.0	1522
573.2	1515
573.4	1505
573.6	1499
573.8	1493
574.0	1487
574.2	1484
574.4	1476
574.6	1467
574.8	1463
575.0	1459
575.2	1454
575.4	1451
575.6	1448
575.8	1442
576.0	1439
576.2	1432
576.4	1426
576.6	1420
576.8	1415
577.0	1408
577.2	1402
577.4	1399
577.6	1397
577.8	1397
578.0	1393
578.2	1388
578.4	1379
578.6	1370
578.8	1360
579.0	1355
579.2	1353
579.4	1349
579.6	1342
579.8	1334
580.0	1326
580.2	1325
580.4	1326
580.6	1322
580.8	1317
581.0	1310
581.2	1303
581.4	1300
581.6	1295
581.8	1290
582.0	1285
582.2	1279
582.4	1276
582.6	1272
582.8	1268
583.0	1265
583.2	1253
583.4	1246
583.6	1241
583.8	1235
584.0	1232
584.2	1232
584.4	1227
584.6	1223
584.8	1216
585.0	1209
585.2	1203
585.4	1201
585.6	1199
585.8	1199
586.0	1193
586.2	1185
586.4	1176
586.6	1166
586.8	1159
587.0	1162
587.2	1163
587.4	1162
587.6	1155
587.8	1143
588.0	1136
588.2	1135
588.4	1132
588.6	1129
588.8	1124
589.0	1116
589.2	1109
589.4	1102
589.6	1094
589.8	1090
590.0	1092
590.2	1090
590.4	1089
590.6	1085
590.8	1077
591.0	1070
591.2	1064
591.4	1057
591.6	1053
591.8	1049
592.0	1047
592.2	1042
592.4	1040
592.6	1035
592.8	1034
593.0	1030
593.2	1029
593.4	1023
593.6	1017
593.8	1010
594.0	1008
594.2	1006
594.4	1001
594.6	995.7
594.8	989.2
595.0	985.2
595.2	982.7
595.4	981.9
595.6	976.1
595.8	972.4
596.0	967.4
596.2	964.2
596.4	958.1
596.6	953.7
596.8	948.5
597.0	945.2
597.2	940.5
597.4	936.2
597.6	931.5
597.8	924.3
598.0	919.5
598.2	917.1
598.4	913.3
598.6	909.0
598.8	908.2
599.0	903.3
599.2	899.7
599.4	899.8
599.6	899.2
599.8	894.4
600.0	886.8
600.2	880.8
600.4	872.0
600.6	869.7
600.8	869.1
601.0	867.8
601.2	864.5
601.4	861.3
601.6	855.4
601.8	851.0
602.0	848.1
602.2	842.7
602.4	837.8
602.6	832.3
602.8	830.9
603.0	827.3
603.2	825.8
603.4	820.7
603.6	814.7
603.8	807.6
604.0	805.0
604.2	801.9
604.4	799.9
604.6	797.2
604.8	791.5
605.0	784.4
605.2	781.1
605.4	777.7
605.6	779.5
605.8	781.8
606.0	780.4
606.2	773.6
606.4	768.1
606.6	761.8
606.8	756.7
607.0	754.0
607.2	750.5
607.4	744.9
607.6	740.3
607.8	739.0
608.0	737.0
608.2	732.3
608.4	728.7
608.6	724.9
608.8	719.9
609.0	717.5
609.2	718.8
609.4	713.7
609.6	711.0
609.8	708.6
610.0	704.7
610.2	701.1
610.4	699.7
610.6	693.4
610.8	688.9
611.0	683.4
611.2	680.3
611.4	677.9
611.6	676.2
611.8	671.4
612.0	666.3
612.2	660.9
612.4	660.0
612.6	655.7
612.8	652.0
613.0	649.8
613.2	647.0
613.4	646.4
613.6	644.0
613.8	640.0
614.0	635.1
614.2	631.7
614.4	629.3
614.6	627.9
614.8	622.5
615.0	618.7
615.2	614.0
615.4	612.3
615.6	613.2
615.8	613.8
616.0	610.5
616.2	608.4
616.4	602.5
616.6	598.2
616.8	595.2
617.0	591.0
617.2	587.2
617.4	586.7
617.6	583.2
617.8	577.6
618.0	574.8
618.2	572.1
618.4	570.4
618.6	570.3
618.8	568.6
619.0	564.3
619.2	558.2
619.4	555.0
619.6	552.3
619.8	550.6
620.0	547.0
620.2	544.6
620.4	539.4
620.6	537.7
620.8	537.1
621.0	533.6
621.2	525.7
621.4	522.1
621.6	518.5
621.8	518.4
622.0	518.5
622.2	517.8
622.4	512.2
622.6	510.6
622.8	506.5
623.0	503.8
623.2	499.6
623.4	496.7
623.6	491.9
623.8	491.6
624.0	489.8
624.2	486.9
624.4	487.4
624.6	485.3
624.8	482.4
625.0	480.9
625.2	477.3
625.4	472.6
625.6	471.9
625.8	468.9
626.0	464.8
626.2	461.8
626.4	459.6
626.6	457.3
626.8	453.7
627.0	449.7
627.2	446.1
627.4	445.2
627.6	446.2
627.8	446.5
628.0	445.0
628.2	444.3
628.4	442.3
628.6	437.4
628.8	434.9
629.0	429.0
629.2	424.3
629.4	423.0
629.6	422.8
629.8	420.5
630.0	418.7
630.2	413.7
630.4	412.5
630.6	409.0
630.8	407.7
631.0	405.1
631.2	401.4
631.4	400.1
631.6	401.2
631.8	399.4
632.0	397.5
632.2	393.8
632.4	390.3
632.6	387.8
632.8	384.2
633.0	384.7
633.2	382.6
633.4	380.4
633.6	377.6
633.8	376.2
634.0	373.0
634.2	371.6
634.4	367.3
634.6	364.6
634.8	362.7
635.0	363.2
635.2	361.3
635.4	358.8
635.6	355.3
635.8	356.0
636.0	355.0
636.2	353.3
636.4	350.6
636.6	346.7
636.8	341.8
637.0	342.5
637.2	340.0
637.4	337.1
637.6	336.7
637.8	334.3
638.0	332.6
638.2	332.4
638.4	328.1
638.6	325.2
638.8	324.6
639.0	322.1
639.2	322.4
639.4	322.0
639.6	318.2
639.8	315.4
640.0	311.5
640.2	307.2
640.4	307.1
640.6	306.7
640.8	305.9
641.0	305.0
641.2	302.9
641.4	301.0
641.6	301.5
641.8	300.6
642.0	298.7
642.2	294.1
642.4	292.5
642.6	290.0
642.8	287.9
643.0	286.0
643.2	285.1
643.4	282.9
643.6	283.6
643.8	281.8
644.0	279.1
644.2	277.7
644.4	275.8
644.6	274.3
644.8	272.1
645.0	269.1
645.2	266.3
645.4	265.2
645.6	261.9
645.8	262.4
646.0	262.4
646.2	261.9
646.4	260.7
646.6	259.3
646.8	258.1
647.0	258.1
647.2	256.2
647.4	253.8
647.6	251.5
647.8	248.1
648.0	246.1
648.2	243.8
648.4	242.3
648.6	241.7
648.8	242.5
649.0	241.2
649.2	240.0
649.4	238.7
649.6	236.0
649.8	233.7
650.0	232.3
650.2	231.2
650.4	229.8
650.6	230.0
650.8	228.5
651.0	227.5
651.2	226.2
651.4	225.4
651.6	222.2
651.8	218.8
652.0	215.5
652.2	213.3
652.4	212.9
652.6	214.1
652.8	214.4
653.0	211.8
653.2	211.4
653.4	210.5
653.6	209.2
653.8	209.3
654.0	208.1
654.2	204.6
654.4	203.8
654.6	202.5
654.8	200.1
655.0	200.3
655.2	200.1
655.4	199.4
655.6	197.6
655.8	194.7
656.0	191.8
656.2	190.8
656.4	190.6
656.6	190.4
656.8	190.5
657.0	188.3
657.2	187.0
657.4	184.6
657.6	182.1
657.8	180.1
658.0	181.4
658.2	181.0
658.4	180.4
658.6	178.5
658.8	176.4
659.0	174.8
659.2	174.6
659.4	172.9
659.6	170.7
659.8	169.6
660.0	171.0
660.2	172.4
660.4	171.7
660.6	169.2
660.8	166.6
661.0	164.1
661.2	164.2
661.4	162.9
661.6	161.8
661.8	161.2
662.0	159.8
662.2	159.7
662.4	159.4
662.6	157.6
662.8	157.9
663.0	156.5
663.2	154.7
663.4	153.7
663.6	153.2
663.8	152.6
664.0	152.1
664.2	150.1
664.4	148.7
664.6	146.4
664.8	146.4
665.0	146.0
665.2	145.1
665.4	144.4
665.6	143.6
665.8	143.6
666.0	143.8
666.2	142.8
666.4	139.3
666.6	135.8
666.8	134.3
667.0	134.3
667.2	135.0
667.4	136.1
667.6	135.0
667.8	133.1
668.0	132.2
668.2	131.6
668.4	130.7
668.6	129.3
668.8	128.3
669.0	128.2
669.2	127.6
669.4	127.3
669.6	126.2
669.8	123.6
670.0	122.9
670.2	124.9
670.4	125.2
670.6	123.7
670.8	122.0
671.0	119.7
671.2	118.7
671.4	119.0
671.6	118.2
671.8	117.1
672.0	116.0
672.2	115.5
672.4	115.7
672.6	115.3
672.8	113.9
673.0	114.4
673.2	113.6
673.4	112.7
673.6	111.2
673.8	109.9
674.0	108.2
674.2	107.8
674.4	107.7
674.6	107.7
674.8	106.2
675.0	105.9
675.2	105.1
675.4	103.5
675.6	103.1
675.8	102.8
676.0	102.0
676.2	100.5
676.4	100.8
676.6	100.2
676.8	100.9
677.0	101.2
677.2	100.4
677.4	99.00
677.6	99.55
677.8	98.12
678.0	97.19
678.2	95.80
678.4	93.49
678.6	93.16
678.8	93.74
679.0	92.77
679.2	91.98
679.4	91.62
679.6	91.17
679.8	91.05
680.0	91.60
680.2	90.30
680.4	88.95
680.6	87.84
680.8	87.42
681.0	86.72
681.2	87.72
681.4	87.57
681.6	86.13
681.8	85.42
682.0	83.75
682.2	82.57
682.4	82.89
682.6	83.40
682.8	82.24
683.0	81.97
683.2	80.52
683.4	79.23
683.6	79.19
683.8	80.03
684.0	80.06
684.2	79.73
684.4	78.99
684.6	77.62
684.8	77.29
685.0	77.48
685.2	77.69
685.4	77.53
685.6	76.57
685.8	75.95
686.0	75.17
686.2	74.04
686.4	73.49
686.6	72.71
686.8	71.82
687.0	71.95
687.2	72.58
687.4	71.85
687.6	71.39
687.8	70.29
688.0	69.02
688.2	69.39
688.4	70.18
688.6	70.10
688.8	70.27
689.0	69.51
689.2	67.86
689.4	66.83
689.6	65.80
689.8	66.25
690.0	66.56
690.2	66.26
690.4	64.94
690.6	64.10
690.8	63.71
691.0	63.54
691.2	61.99
691.4	61.02
691.6	60.11
691.8	59.99
692.0	60.67
692.2	61.01
692.4	60.72
692.6	61.50
692.8	60.98
693.0	60.43
693.2	59.45
693.4	58.63
693.6	57.64
693.8	57.62
694.0	56.64
694.2	57.54
694.4	56.82
694.6	55.99
694.8	55.26
695.0	55.41
695.2	55.00
695.4	55.28
695.6	54.64
695.8	53.94
696.0	53.78
696.2	54.75
696.4	54.21
696.6	53.29
696.8	52.58
697.0	51.56
697.2	51.02
697.4	51.45
697.6	51.21
697.8	50.99
698.0	51.28
698.2	50.68
698.4	51.06
698.6	51.34
698.8	51.50
699.0	51.29
699.2	51.11
699.4	49.92
699.6	48.87
699.8	49.25
700.0	48.65
700.2	48.49
700.4	49.30
700.6	49.38
700.8	47.84
701.0	47.18
701.2	45.90
701.4	45.08
701.6	45.27
701.8	45.58
702.0	45.25
702.2	45.00
702.4	45.31
702.6	45.30
702.8	45.49
703.0	45.67
703.2	45.80
703.4	45.48
703.6	44.73
703.8	43.68
704.0	43.61
704.2	43.36
704.4	43.08
704.6	42.54
704.8	41.94
705.0	41.57
705.2	41.44
705.4	41.46
705.6	41.14
705.8	41.29
706.0	40.91
706.2	41.01
706.4	40.97
706.6	40.95
706.8	40.72
707.0	40.92
707.2	40.76
707.4	40.34
707.6	40.72
707.8	39.96
708.0	39.51
708.2	39.02
708.4	38.61
708.6	37.72
708.8	37.24
709.0	36.98
709.2	36.96
709.4	37.41
709.6	36.98
709.8	37.17
710.0	36.75
710.2	36.35
710.4	36.02
710.6	36.32
710.8	35.97
711.0	36.29
711.2	35.94
711.4	34.68
711.6	34.55
711.8	34.34
712.0	34.54
712.2	34.57
712.4	34.67
712.6	34.43
712.8	34.31
713.0	33.67
713.2	33.54
713.4	32.94
713.6	32.55
713.8	32.66
714.0	32.69
714.2	32.68
714.4	32.81
714.6	32.10
714.8	31.66
715.0	31.20
715.2	31.21
715.4	30.45
715.6	30.10
715.8	29.87
716.0	30.61
716.2	31.00
716.4	31.49
716.6	31.07
716.8	30.45
717.0	29.94
717.2	30.05
717.4	29.99
717.6	30.11
717.8	30.16
718.0	29.84
718.2	29.15
718.4	28.38
718.6	27.77
718.8	27.42
719.0	27.60
719.2	27.63
719.4	27.16
719.6	27.27
719.8	26.88
720.0	26.93
720.2	27.14
720.4	27.02
720.6	26.73
720.8	26.68
721.0	25.78
721.2	25.22
721.4	24.55
721.6	24.83
721.8	25.12
722.0	24.71
722.2	24.51
722.4	24.19
722.6	24.55
722.8	24.92
723.0	25.18
723.2	24.35
723.4	23.49
723.6	22.73
723.8	22.73
724.0	22.76
724.2	22.71
724.4	22.73
724.6	22.77
724.8	22.94
725.0	22.51
725.2	22.47
725.4	21.92
725.6	21.81
725.8	22.13
726.0	22.23
726.2	21.69
726.4	21.33
726.6	21.01
726.8	21.05
727.0	21.40
727.2	21.27
727.4	20.97
727.6	20.27
727.8	19.61
728.0	19.69
728.2	19.68
728.4	19.92
728.6	19.95
728.8	19.70
729.0	19.33
729.2	19.39
729.4	19.04
729.6	18.86
729.8	18.31
730.0	17.98
730.2	17.78
730.4	18.46
730.6	18.69
730.8	19.12
731.0	19.26
731.2	19.16
731.4	18.79
731.6	18.87
731.8	18.32
732.0	18.32
732.2	17.86
732.4	17.38
732.6	17.17
732.8	17.50
733.0	17.52
733.2	17.59
733.4	16.74
733.6	16.08
733.8	16.18
734.0	16.56
734.2	16.77
734.4	16.58
734.6	16.06
734.8	15.54
735.0	15.62
735.2	15.51
735.4	15.56
735.6	15.12
735.8	15.58
736.0	15.88
736.2	15.78
736.4	15.72
736.6	15.83
736.8	15.27
737.0	15.60
737.2	15.60
737.4	14.85
737.6	14.55
737.8	14.71
738.0	14.72
738.2	14.60
738.4	14.45
738.6	14.11
738.8	13.68
739.0	13.58
739.2	13.79
739.4	13.74
739.6	13.61
739.8	13.61
740.0	13.39
740.2	13.69
740.4	13.89
740.6	14.23
740.8	13.92
741.0	13.15
741.2	12.50
741.4	12.23
741.6	12.25
741.8	12.82
742.0	13.10
742.2	13.02
742.4	12.88
742.6	12.71
742.8	12.70
743.0	12.50
743.2	12.41
743.4	12.40
743.6	12.15
743.8	11.98
744.0	11.94
744.2	11.52
744.4	11.45
744.6	11.67
744.8	11.48
745.0	11.29
745.2	11.18
745.4	10.42
745.6	10.34
745.8	10.88
746.0	11.22
746.2	11.26
746.4	11.33
746.6	11.11
746.8	11.41
747.0	11.62
747.2	11.38
747.4	10.86
747.6	10.89
747.8	11.13
748.0	11.34
748.2	11.05
748.4	10.29
748.6	9.875
748.8	9.771
749.0	9.786
749.2	9.745
749.4	9.903
749.6	9.887
749.8	10.09
750.0	10.36
750.2	10.12
750.4	9.686
750.6	9.508
750.8	9.186
751.0	9.175
751.2	9.496
751.4	9.230
751.6	9.070
751.8	9.058
752.0	8.971
752.2	9.389
752.4	9.713
752.6	9.503
752.8	9.283
753.0	8.892
753.2	8.343
753.4	8.350
753.6	8.423
753.8	8.628
754.0	9.187
754.2	9.214
754.4	8.962
754.6	8.790
754.8	8.176
755.0	7.893
755.2	8.131
755.4	8.477
755.6	8.878
755.8	8.940
756.0	8.447
756.2	8.371
756.4	8.408
756.6	8.504
756.8	8.733
757.0	8.553
757.2	7.790
757.4	7.476
757.6	7.301
757.8	7.281
758.0	7.768
758.2	8.104
758.4	8.082
758.6	7.861
758.8	7.613
759.0	7.270
759.2	6.954
759.4	6.939
759.6	7.285
759.8	7.405
760.0	7.518
760.2	7.298
760.4	6.940
760.6	6.986
760.8	6.967
761.0	6.986
761.2	7.350
761.4	7.332
761.6	7.279
761.8	7.219
762.0	6.708
762.2	6.251
762.4	6.491
762.6	6.500
762.8	6.741
763.0	6.829
763.2	6.831
763.4	6.584
763.6	6.687
763.8	6.699
764.0	6.600
764.2	6.689
764.4	6.885
764.6	6.660
764.8	6.381
765.0	6.115
765.2	5.820
765.4	5.769
765.6	5.786
765.8	5.782
766.0	5.853
766.2	6.017
766.4	6.107
766.6	5.903
766.8	5.669
767.0	5.654
767.2	5.785
767.4	5.696
767.6	5.501
767.8	5.683
768.0	5.963
768.2	6.121
768.4	6.226
768.6	5.791
768.8	5.379
769.0	5.510
769.2	5.508
769.4	5.319
769.6	5.371
769.8	5.087
770.0	5.221
770.2	5.625
770.4	5.713
770.6	5.559
770.8	5.412
771.0	4.942
771.2	4.846
771.4	5.035
771.6	5.179
771.8	5.149
772.0	5.220
772.2	5.238
772.4	5.069
772.6	4.990
772.8	5.053
773.0	5.051
773.2	5.366
773.4	5.420
773.6	5.333
773.8	5.181
774.0	4.858
774.2	4.753
774.4	4.730
774.6	4.653
774.8	4.777
775.0	5.034
775.2	4.957
775.4	4.659
775.6	4.324
775.8	4.432
776.0	4.364
776.2	4.860
776.4	4.851
776.6	4.667
776.8	4.559
777.0	4.743
777.2	4.605
777.4	4.756
777.6	4.388
777.8	4.311
778.0	4.224
778.2	4.380
778.4	4.380
778.6	4.411
778.8	4.381
779.0	4.355
779.2	4.240
779.4	4.445
779.6	4.357
779.8	4.497
780.0	4.482
780.2	4.247
780.4	4.146
780.6	4.511
780.8	4.580
781.0	4.886
781.2	4.698
781.4	4.395
781.6	3.959
781.8	3.733
782.0	3.963
782.2	4.091
782.4	4.209
782.6	4.211
782.8	4.047
783.0	3.918
783.2	4.355
783.4	4.385
783.6	4.225
783.8	3.888
784.0	4.003
784.2	4.093
784.4	4.376
784.6	4.543
784.8	4.267
785.0	3.822
785.2	3.980
785.4	4.222
785.6	4.386
785.8	4.505
786.0	4.187
786.2	3.795
786.4	3.721
786.6	3.761
786.8	3.812
787.0	3.763
787.2	3.703
787.4	3.735
787.6	3.766
787.8	3.826
788.0	3.976
788.2	3.752
788.4	3.641
788.6	3.475
788.8	3.751
789.0	3.960
789.2	4.069
789.4	3.986
789.6	3.849
789.8	3.749
790.0	3.715
790.2	3.727
790.4	3.906
790.6	3.921
790.8	3.816
791.0	3.887
791.2	3.534
791.4	3.473
791.6	3.677
791.8	3.757
792.0	3.665
792.2	3.785
792.4	3.884
792.6	3.774
792.8	3.803
793.0	3.858
793.2	3.543
793.4	3.412
793.6	3.241
793.8	3.324
794.0	3.617
794.2	3.845
794.4	3.885
794.6	3.658
794.8	3.324
795.0	3.285
795.2	3.086
795.4	2.918
795.6	2.976
795.8	3.070
796.0	3.407
796.2	3.668
796.4	3.820
796.6	3.754
796.8	3.540
797.0	3.353
797.2	3.327
797.4	3.419
797.6	3.627
797.8	3.715
798.0	3.699
798.2	3.696
798.4	3.660
798.6	3.545
798.8	3.594
799.0	3.731
799.2	3.874
799.4	3.889
799.6	3.608
799.8	3.404
800.0	3.481

