Sample:	'20211010A(EM)
File name:	G-NI 5.FDS
Run date:	'19:24:29, 06/19/2023
Operator:	Administrator
Comment:	'

Instrument
Model:	F-4700 FL Spectrophotometer
Serial number:	2019-001
ROM Version:	5J24010 00

Instrument parameters
Measurement type:	Wavelength scan
Scan mode:	Emission
Data mode:	Fluorescence
EX WL:	400.0 nm
EM  Start WL:	420.0 nm
EM  End WL:	800.0 nm
Scan speed:	1200 nm/min
Delay:	0.0 s
EX Slit:	10.0 nm
EM Slit:	10.0 nm
PMT Voltage:	500 V
Response:	0.002 s
Corrected spectra:	Off
Shutter control:	On

Processing performed
Savitsky-Golay smoothed
Smoothing order:	3
Number of points:	7
Number of times:	1

Peak integration
Integration method:	Rectangular
Sensitivity:	1
Threshold:	1.000

Peaks
No.	Start(nm)	Apex(nm)	End(nm)	Height(Data)	Valley(nm)	Valley(Data)
1	420.0	536.4	537.6	2045	537.6	2034
2	537.6	539.4	540.0	2053	540.0	2034
3	540.0	541.4	709.4	2055	709.4	35.53
4	709.4	710.2	713.6	36.76	713.6	30.49
5	713.6	714.6	723.6	31.80	723.6	22.07
6	723.6	724.2	747.6	23.58	747.6	9.886
7	747.6	749.2	772.6	10.93	772.6	4.478
8	772.6	773.2	800.0	5.480	800.0	3.250

Data points
nm	Data
420.0	1.297
420.2	1.411
420.4	1.457
420.6	1.443
420.8	1.321
421.0	1.309
421.2	1.232
421.4	1.211
421.6	1.333
421.8	1.423
422.0	1.374
422.2	1.491
422.4	1.398
422.6	1.393
422.8	1.472
423.0	1.500
423.2	1.367
423.4	1.364
423.6	1.253
423.8	1.197
424.0	1.120
424.2	1.114
424.4	1.105
424.6	1.242
424.8	1.358
425.0	1.426
425.2	1.401
425.4	1.262
425.6	1.289
425.8	1.348
426.0	1.360
426.2	1.377
426.4	1.270
426.6	1.265
426.8	1.351
427.0	1.400
427.2	1.393
427.4	1.348
427.6	1.323
427.8	1.413
428.0	1.434
428.2	1.360
428.4	1.270
428.6	1.106
428.8	1.031
429.0	1.046
429.2	1.043
429.4	1.193
429.6	1.341
429.8	1.344
430.0	1.231
430.2	1.087
430.4	0.994
430.6	1.153
430.8	1.232
431.0	1.363
431.2	1.324
431.4	1.280
431.6	1.413
431.8	1.440
432.0	1.329
432.2	1.319
432.4	1.351
432.6	1.370
432.8	1.506
433.0	1.567
433.2	1.564
433.4	1.606
433.6	1.536
433.8	1.314
434.0	1.117
434.2	1.193
434.4	1.270
434.6	1.475
434.8	1.439
435.0	1.477
435.2	1.331
435.4	1.451
435.6	1.516
435.8	1.574
436.0	1.386
436.2	1.285
436.4	1.249
436.6	1.312
436.8	1.426
437.0	1.433
437.2	1.375
437.4	1.409
437.6	1.483
437.8	1.477
438.0	1.362
438.2	1.352
438.4	1.430
438.6	1.584
438.8	1.649
439.0	1.637
439.2	1.526
439.4	1.481
439.6	1.337
439.8	1.304
440.0	1.227
440.2	1.334
440.4	1.324
440.6	1.347
440.8	1.222
441.0	1.126
441.2	1.283
441.4	1.599
441.6	1.579
441.8	1.691
442.0	1.503
442.2	1.369
442.4	1.516
442.6	1.564
442.8	1.429
443.0	1.368
443.2	1.142
443.4	1.189
443.6	1.209
443.8	1.383
444.0	1.424
444.2	1.460
444.4	1.369
444.6	1.380
444.8	1.446
445.0	1.566
445.2	1.525
445.4	1.402
445.6	1.331
445.8	1.229
446.0	1.382
446.2	1.573
446.4	1.572
446.6	1.418
446.8	1.386
447.0	1.384
447.2	1.544
447.4	1.717
447.6	1.749
447.8	1.568
448.0	1.352
448.2	1.255
448.4	1.353
448.6	1.495
448.8	1.609
449.0	1.745
449.2	1.648
449.4	1.754
449.6	1.785
449.8	1.719
450.0	1.522
450.2	1.559
450.4	1.373
450.6	1.540
450.8	1.579
451.0	1.522
451.2	1.445
451.4	1.574
451.6	1.637
451.8	1.811
452.0	1.848
452.2	1.719
452.4	1.623
452.6	1.587
452.8	1.563
453.0	1.670
453.2	1.682
453.4	1.729
453.6	1.880
453.8	1.872
454.0	1.679
454.2	1.460
454.4	1.323
454.6	1.232
454.8	1.394
455.0	1.602
455.2	1.774
455.4	1.878
455.6	1.813
455.8	1.706
456.0	1.672
456.2	1.545
456.4	1.624
456.6	1.661
456.8	1.349
457.0	1.396
457.2	1.505
457.4	1.523
457.6	1.764
457.8	2.060
458.0	2.088
458.2	2.119
458.4	2.131
458.6	1.921
458.8	1.815
459.0	1.910
459.2	2.049
459.4	2.070
459.6	2.110
459.8	1.985
460.0	1.869
460.2	1.938
460.4	2.046
460.6	2.048
460.8	2.041
461.0	2.068
461.2	2.050
461.4	2.291
461.6	2.366
461.8	2.247
462.0	2.036
462.2	1.872
462.4	1.841
462.6	2.031
462.8	2.181
463.0	2.219
463.2	2.178
463.4	2.117
463.6	2.171
463.8	2.154
464.0	2.022
464.2	2.142
464.4	2.381
464.6	2.573
464.8	2.774
465.0	2.849
465.2	2.723
465.4	2.630
465.6	2.698
465.8	2.721
466.0	2.676
466.2	2.976
466.4	3.172
466.6	3.127
466.8	3.215
467.0	3.190
467.2	3.128
467.4	3.340
467.6	3.789
467.8	3.743
468.0	3.741
468.2	3.672
468.4	3.780
468.6	3.803
468.8	4.195
469.0	4.304
469.2	4.604
469.4	4.769
469.6	4.822
469.8	4.701
470.0	4.651
470.2	4.834
470.4	5.017
470.6	4.922
470.8	5.239
471.0	5.505
471.2	5.878
471.4	6.334
471.6	6.511
471.8	6.291
472.0	6.720
472.2	6.737
472.4	6.777
472.6	7.136
472.8	7.390
473.0	7.393
473.2	7.791
473.4	8.182
473.6	8.551
473.8	8.816
474.0	9.075
474.2	9.279
474.4	9.526
474.6	10.17
474.8	10.64
475.0	10.79
475.2	11.25
475.4	11.95
475.6	12.42
475.8	12.95
476.0	12.80
476.2	12.82
476.4	12.98
476.6	13.83
476.8	14.79
477.0	15.95
477.2	16.07
477.4	16.80
477.6	17.02
477.8	17.49
478.0	17.85
478.2	18.49
478.4	18.87
478.6	19.96
478.8	21.01
479.0	21.97
479.2	22.74
479.4	23.74
479.6	24.37
479.8	25.06
480.0	25.87
480.2	27.00
480.4	28.08
480.6	29.25
480.8	30.21
481.0	30.89
481.2	31.41
481.4	32.76
481.6	33.59
481.8	35.23
482.0	36.99
482.2	38.68
482.4	39.59
482.6	40.78
482.8	41.73
483.0	44.06
483.2	45.51
483.4	47.04
483.6	47.68
483.8	49.31
484.0	50.51
484.2	52.60
484.4	55.08
484.6	56.76
484.8	58.10
485.0	60.71
485.2	62.54
485.4	64.70
485.6	66.97
485.8	68.99
486.0	70.16
486.2	72.89
486.4	76.45
486.6	79.48
486.8	81.27
487.0	83.58
487.2	85.70
487.4	88.25
487.6	91.37
487.8	94.60
488.0	97.13
488.2	99.71
488.4	104.8
488.6	108.2
488.8	112.1
489.0	115.9
489.2	118.2
489.4	121.0
489.6	125.4
489.8	128.7
490.0	132.8
490.2	137.9
490.4	142.8
490.6	147.7
490.8	151.4
491.0	154.8
491.2	157.5
491.4	162.0
491.6	166.1
491.8	170.5
492.0	174.0
492.2	179.4
492.4	183.9
492.6	190.4
492.8	197.0
493.0	204.0
493.2	210.3
493.4	216.8
493.6	220.7
493.8	226.7
494.0	232.8
494.2	240.5
494.4	247.2
494.6	255.2
494.8	259.7
495.0	264.8
495.2	269.4
495.4	275.3
495.6	281.0
495.8	289.4
496.0	295.6
496.2	302.0
496.4	310.2
496.6	317.5
496.8	325.9
497.0	334.0
497.2	340.2
497.4	347.7
497.6	355.1
497.8	363.4
498.0	373.5
498.2	382.9
498.4	390.0
498.6	400.2
498.8	407.6
499.0	416.7
499.2	426.1
499.4	434.9
499.6	445.3
499.8	455.9
500.0	465.8
500.2	479.5
500.4	488.5
500.6	497.1
500.8	506.5
501.0	515.1
501.2	521.8
501.4	533.1
501.6	544.2
501.8	555.7
502.0	568.3
502.2	582.4
502.4	590.0
502.6	598.0
502.8	607.3
503.0	616.3
503.2	626.5
503.4	641.0
503.6	655.1
503.8	666.9
504.0	676.8
504.2	685.2
504.4	694.9
504.6	707.3
504.8	721.1
505.0	734.4
505.2	746.5
505.4	757.7
505.6	771.5
505.8	784.2
506.0	794.7
506.2	806.0
506.4	817.7
506.6	828.5
506.8	841.2
507.0	856.1
507.2	866.8
507.4	879.4
507.6	893.3
507.8	903.9
508.0	918.1
508.2	932.2
508.4	946.2
508.6	959.2
508.8	968.8
509.0	976.8
509.2	988.4
509.4	1002
509.6	1021
509.8	1036
510.0	1046
510.2	1056
510.4	1068
510.6	1078
510.8	1090
511.0	1104
511.2	1119
511.4	1132
511.6	1144
511.8	1150
512.0	1161
512.2	1179
512.4	1196
512.6	1212
512.8	1222
513.0	1230
513.2	1245
513.4	1261
513.6	1270
513.8	1282
514.0	1293
514.2	1307
514.4	1316
514.6	1326
514.8	1334
515.0	1345
515.2	1360
515.4	1376
515.6	1386
515.8	1397
516.0	1410
516.2	1419
516.4	1430
516.6	1441
516.8	1451
517.0	1457
517.2	1472
517.4	1481
517.6	1489
517.8	1502
518.0	1515
518.2	1529
518.4	1545
518.6	1554
518.8	1560
519.0	1565
519.2	1577
519.4	1589
519.6	1599
519.8	1613
520.0	1625
520.2	1632
520.4	1639
520.6	1648
520.8	1660
521.0	1670
521.2	1681
521.4	1690
521.6	1697
521.8	1705
522.0	1721
522.2	1730
522.4	1735
522.6	1738
522.8	1742
523.0	1742
523.2	1756
523.4	1765
523.6	1774
523.8	1784
524.0	1794
524.2	1801
524.4	1812
524.6	1820
524.8	1824
525.0	1830
525.2	1840
525.4	1842
525.6	1845
525.8	1851
526.0	1853
526.2	1863
526.4	1875
526.6	1882
526.8	1886
527.0	1889
527.2	1893
527.4	1903
527.6	1910
527.8	1912
528.0	1912
528.2	1914
528.4	1921
528.6	1930
528.8	1939
529.0	1943
529.2	1949
529.4	1950
529.6	1955
529.8	1959
530.0	1959
530.2	1961
530.4	1968
530.6	1972
530.8	1980
531.0	1985
531.2	1982
531.4	1982
531.6	1984
531.8	1989
532.0	1996
532.2	1999
532.4	1997
532.6	2003
532.8	2009
533.0	2016
533.2	2025
533.4	2030
533.6	2029
533.8	2027
534.0	2027
534.2	2026
534.4	2027
534.6	2032
534.8	2034
535.0	2031
535.2	2033
535.4	2032
535.6	2036
535.8	2041
536.0	2038
536.2	2041
536.4	2045
536.6	2042
536.8	2043
537.0	2040
537.2	2035
537.4	2038
537.6	2034
537.8	2039
538.0	2042
538.2	2050
538.4	2050
538.6	2048
538.8	2037
539.0	2043
539.2	2046
539.4	2053
539.6	2049
539.8	2041
540.0	2034
540.2	2041
540.4	2042
540.6	2043
540.8	2041
541.0	2043
541.2	2048
541.4	2055
541.6	2055
541.8	2051
542.0	2042
542.2	2036
542.4	2031
542.6	2029
542.8	2030
543.0	2033
543.2	2030
543.4	2028
543.6	2024
543.8	2024
544.0	2023
544.2	2020
544.4	2017
544.6	2018
544.8	2013
545.0	2017
545.2	2013
545.4	2008
545.6	2004
545.8	1999
546.0	1999
546.2	1998
546.4	1999
546.6	2003
546.8	2005
547.0	1999
547.2	1997
547.4	1988
547.6	1987
547.8	1984
548.0	1982
548.2	1978
548.4	1979
548.6	1978
548.8	1978
549.0	1974
549.2	1964
549.4	1954
549.6	1949
549.8	1951
550.0	1955
550.2	1958
550.4	1953
550.6	1944
550.8	1934
551.0	1930
551.2	1927
551.4	1926
551.6	1928
551.8	1928
552.0	1921
552.2	1919
552.4	1916
552.6	1912
552.8	1910
553.0	1911
553.2	1905
553.4	1898
553.6	1890
553.8	1883
554.0	1877
554.2	1877
554.4	1874
554.6	1869
554.8	1867
555.0	1864
555.2	1863
555.4	1859
555.6	1852
555.8	1846
556.0	1840
556.2	1836
556.4	1833
556.6	1832
556.8	1830
557.0	1827
557.2	1821
557.4	1814
557.6	1807
557.8	1803
558.0	1803
558.2	1803
558.4	1801
558.6	1795
558.8	1790
559.0	1784
559.2	1782
559.4	1777
559.6	1777
559.8	1773
560.0	1767
560.2	1763
560.4	1757
560.6	1752
560.8	1748
561.0	1741
561.2	1734
561.4	1727
561.6	1722
561.8	1723
562.0	1718
562.2	1712
562.4	1708
562.6	1706
562.8	1700
563.0	1699
563.2	1695
563.4	1691
563.6	1687
563.8	1683
564.0	1674
564.2	1666
564.4	1662
564.6	1658
564.8	1653
565.0	1646
565.2	1640
565.4	1632
565.6	1630
565.8	1628
566.0	1625
566.2	1620
566.4	1618
566.6	1612
566.8	1610
567.0	1605
567.2	1598
567.4	1587
567.6	1587
567.8	1583
568.0	1583
568.2	1574
568.4	1568
568.6	1561
568.8	1561
569.0	1559
569.2	1557
569.4	1551
569.6	1545
569.8	1541
570.0	1540
570.2	1533
570.4	1523
570.6	1514
570.8	1506
571.0	1502
571.2	1500
571.4	1493
571.6	1488
571.8	1481
572.0	1481
572.2	1478
572.4	1473
572.6	1469
572.8	1464
573.0	1457
573.2	1452
573.4	1443
573.6	1438
573.8	1437
574.0	1436
574.2	1432
574.4	1430
574.6	1421
574.8	1412
575.0	1405
575.2	1401
575.4	1396
575.6	1394
575.8	1391
576.0	1386
576.2	1377
576.4	1370
576.6	1361
576.8	1358
577.0	1358
577.2	1354
577.4	1347
577.6	1340
577.8	1334
578.0	1331
578.2	1330
578.4	1322
578.6	1317
578.8	1312
579.0	1307
579.2	1301
579.4	1302
579.6	1294
579.8	1288
580.0	1278
580.2	1275
580.4	1270
580.6	1272
580.8	1265
581.0	1260
581.2	1252
581.4	1250
581.6	1245
581.8	1247
582.0	1240
582.2	1237
582.4	1230
582.6	1226
582.8	1217
583.0	1211
583.2	1202
583.4	1195
583.6	1188
583.8	1189
584.0	1186
584.2	1183
584.4	1180
584.6	1176
584.8	1173
585.0	1170
585.2	1168
585.4	1165
585.6	1155
585.8	1146
586.0	1137
586.2	1130
586.4	1126
586.6	1123
586.8	1119
587.0	1113
587.2	1109
587.4	1105
587.6	1100
587.8	1096
588.0	1094
588.2	1088
588.4	1085
588.6	1082
588.8	1077
589.0	1072
589.2	1070
589.4	1065
589.6	1064
589.8	1063
590.0	1059
590.2	1055
590.4	1051
590.6	1044
590.8	1039
591.0	1034
591.2	1027
591.4	1022
591.6	1016
591.8	1011
592.0	1005
592.2	1002
592.4	1001
592.6	997.9
592.8	994.4
593.0	991.2
593.2	986.5
593.4	979.6
593.6	975.3
593.8	969.0
594.0	961.5
594.2	963.0
594.4	960.3
594.6	954.3
594.8	955.0
595.0	950.6
595.2	948.3
595.4	946.5
595.6	938.6
595.8	929.3
596.0	926.6
596.2	919.7
596.4	917.0
596.6	911.4
596.8	908.0
597.0	904.0
597.2	902.1
597.4	900.4
597.6	897.8
597.8	894.9
598.0	889.6
598.2	884.8
598.4	880.0
598.6	876.1
598.8	873.4
599.0	872.5
599.2	867.6
599.4	866.7
599.6	863.6
599.8	859.0
600.0	854.2
600.2	847.2
600.4	840.9
600.6	837.8
600.8	835.4
601.0	832.5
601.2	829.2
601.4	821.5
601.6	814.5
601.8	813.1
602.0	813.1
602.2	811.8
602.4	811.1
602.6	804.8
602.8	799.5
603.0	799.0
603.2	795.5
603.4	790.4
603.6	785.1
603.8	776.4
604.0	773.6
604.2	776.1
604.4	773.6
604.6	770.5
604.8	766.1
605.0	757.0
605.2	754.0
605.4	753.5
605.6	749.8
605.8	745.9
606.0	742.5
606.2	736.1
606.4	732.9
606.6	732.4
606.8	730.6
607.0	723.4
607.2	719.4
607.4	713.1
607.6	709.8
607.8	712.5
608.0	709.9
608.2	705.0
608.4	704.4
608.6	699.2
608.8	698.1
609.0	696.5
609.2	693.7
609.4	689.6
609.6	684.9
609.8	679.2
610.0	673.2
610.2	669.0
610.4	666.2
610.6	665.0
610.8	663.3
611.0	662.4
611.2	656.3
611.4	652.2
611.6	648.6
611.8	647.1
612.0	647.6
612.2	647.6
612.4	642.7
612.6	638.4
612.8	634.3
613.0	628.4
613.2	625.0
613.4	619.9
613.6	615.1
613.8	611.8
614.0	610.2
614.2	609.2
614.4	606.7
614.6	604.4
614.8	601.3
615.0	598.4
615.2	597.9
615.4	596.2
615.6	591.0
615.8	586.5
616.0	580.9
616.2	576.8
616.4	575.2
616.6	573.8
616.8	572.3
617.0	571.0
617.2	567.1
617.4	564.8
617.6	562.4
617.8	559.3
618.0	555.0
618.2	549.3
618.4	545.0
618.6	544.9
618.8	543.8
619.0	544.3
619.2	541.4
619.4	539.7
619.6	539.6
619.8	535.9
620.0	532.7
620.2	528.0
620.4	522.6
620.6	521.0
620.8	517.9
621.0	511.8
621.2	509.9
621.4	504.9
621.6	501.8
621.8	501.3
622.0	501.3
622.2	500.3
622.4	498.8
622.6	495.9
622.8	491.9
623.0	487.5
623.2	484.0
623.4	482.5
623.6	480.0
623.8	478.4
624.0	478.1
624.2	476.7
624.4	471.6
624.6	468.7
624.8	462.0
625.0	456.8
625.2	457.6
625.4	459.3
625.6	456.6
625.8	454.9
626.0	449.4
626.2	444.6
626.4	442.7
626.6	442.2
626.8	438.4
627.0	438.4
627.2	436.4
627.4	434.9
627.6	433.8
627.8	432.5
628.0	428.3
628.2	425.8
628.4	422.0
628.6	419.9
628.8	416.6
629.0	414.7
629.2	413.5
629.4	409.5
629.6	406.9
629.8	404.0
630.0	397.8
630.2	395.3
630.4	395.7
630.6	395.0
630.8	395.3
631.0	393.8
631.2	390.2
631.4	385.5
631.6	382.9
631.8	380.5
632.0	377.8
632.2	377.7
632.4	377.3
632.6	376.7
632.8	376.5
633.0	375.0
633.2	368.8
633.4	363.7
633.6	361.1
633.8	360.2
634.0	359.5
634.2	360.2
634.4	356.0
634.6	354.2
634.8	351.9
635.0	351.1
635.2	348.6
635.4	347.8
635.6	344.8
635.8	342.2
636.0	337.3
636.2	335.3
636.4	333.0
636.6	332.6
636.8	331.7
637.0	331.2
637.2	331.8
637.4	330.6
637.6	328.1
637.8	323.1
638.0	320.2
638.2	316.1
638.4	314.1
638.6	312.2
638.8	309.1
639.0	306.7
639.2	308.0
639.4	308.5
639.6	309.9
639.8	307.3
640.0	302.2
640.2	299.7
640.4	297.8
640.6	297.4
640.8	296.7
641.0	291.6
641.2	288.6
641.4	286.8
641.6	285.6
641.8	288.9
642.0	289.1
642.2	287.9
642.4	284.5
642.6	281.7
642.8	277.8
643.0	276.7
643.2	274.5
643.4	273.5
643.6	271.3
643.8	271.6
644.0	269.3
644.2	267.4
644.4	267.1
644.6	266.4
644.8	263.9
645.0	262.6
645.2	259.4
645.4	257.7
645.6	256.8
645.8	254.1
646.0	251.3
646.2	250.8
646.4	249.6
646.6	248.8
646.8	248.1
647.0	245.9
647.2	244.7
647.4	242.9
647.6	241.0
647.8	238.2
648.0	237.3
648.2	236.3
648.4	237.9
648.6	237.9
648.8	235.3
649.0	232.2
649.2	229.8
649.4	226.8
649.6	228.1
649.8	227.3
650.0	224.5
650.2	222.6
650.4	222.0
650.6	222.6
650.8	223.7
651.0	222.4
651.2	219.3
651.4	215.9
651.6	213.1
651.8	210.9
652.0	210.2
652.2	208.5
652.4	207.3
652.6	207.0
652.8	205.7
653.0	203.4
653.2	203.1
653.4	201.3
653.6	201.4
653.8	202.1
654.0	201.6
654.2	199.2
654.4	195.7
654.6	192.3
654.8	191.4
655.0	190.0
655.2	190.7
655.4	189.0
655.6	186.4
655.8	186.0
656.0	185.5
656.2	186.2
656.4	187.5
656.6	185.8
656.8	184.0
657.0	183.5
657.2	181.3
657.4	180.8
657.6	179.8
657.8	177.7
658.0	176.6
658.2	174.0
658.4	172.2
658.6	172.0
658.8	171.9
659.0	171.6
659.2	171.2
659.4	169.0
659.6	167.9
659.8	167.5
660.0	167.1
660.2	166.4
660.4	164.7
660.6	163.5
660.8	160.4
661.0	159.1
661.2	158.1
661.4	157.8
661.6	157.0
661.8	156.5
662.0	155.3
662.2	155.3
662.4	153.3
662.6	152.5
662.8	151.6
663.0	149.6
663.2	149.9
663.4	149.1
663.6	148.1
663.8	146.9
664.0	144.9
664.2	142.8
664.4	142.7
664.6	142.3
664.8	143.4
665.0	143.3
665.2	141.7
665.4	141.0
665.6	140.8
665.8	139.0
666.0	138.7
666.2	137.0
666.4	135.5
666.6	135.1
666.8	134.7
667.0	133.5
667.2	133.5
667.4	131.4
667.6	130.0
667.8	130.7
668.0	130.3
668.2	128.5
668.4	128.0
668.6	125.1
668.8	122.8
669.0	123.5
669.2	123.4
669.4	122.3
669.6	123.4
669.8	121.3
670.0	120.4
670.2	119.8
670.4	119.6
670.6	119.2
670.8	119.2
671.0	117.7
671.2	115.6
671.4	113.7
671.6	113.9
671.8	114.6
672.0	114.7
672.2	115.4
672.4	113.7
672.6	111.8
672.8	109.6
673.0	108.3
673.2	107.6
673.4	107.5
673.6	107.4
673.8	106.7
674.0	104.9
674.2	103.4
674.4	104.0
674.6	104.3
674.8	104.1
675.0	102.8
675.2	101.4
675.4	100.5
675.6	100.3
675.8	100.4
676.0	99.85
676.2	98.77
676.4	98.14
676.6	97.80
676.8	96.26
677.0	95.86
677.2	95.54
677.4	95.75
677.6	95.86
677.8	94.53
678.0	92.67
678.2	91.80
678.4	90.95
678.6	89.64
678.8	88.73
679.0	87.67
679.2	87.88
679.4	88.73
679.6	89.18
679.8	88.08
680.0	86.51
680.2	86.08
680.4	85.66
680.6	84.42
680.8	82.70
681.0	81.76
681.2	81.13
681.4	81.96
681.6	82.63
681.8	82.13
682.0	81.37
682.2	80.71
682.4	80.10
682.6	78.60
682.8	77.77
683.0	76.83
683.2	77.29
683.4	77.26
683.6	78.11
683.8	77.63
684.0	76.48
684.2	75.50
684.4	75.27
684.6	73.86
684.8	73.24
685.0	72.81
685.2	72.52
685.4	72.37
685.6	72.52
685.8	72.58
686.0	72.77
686.2	73.06
686.4	72.83
686.6	70.57
686.8	68.56
687.0	67.48
687.2	67.48
687.4	67.66
687.6	67.72
687.8	67.08
688.0	67.02
688.2	66.44
688.4	65.77
688.6	64.88
688.8	63.94
689.0	62.40
689.2	62.77
689.4	62.67
689.6	62.99
689.8	62.94
690.0	63.08
690.2	62.67
690.4	62.20
690.6	61.32
690.8	60.40
691.0	60.41
691.2	60.67
691.4	60.77
691.6	60.68
691.8	60.36
692.0	59.61
692.2	59.70
692.4	59.15
692.6	57.87
692.8	57.36
693.0	56.46
693.2	55.99
693.4	55.71
693.6	56.58
693.8	56.06
694.0	55.95
694.2	55.82
694.4	54.75
694.6	53.94
694.8	53.88
695.0	53.86
695.2	53.87
695.4	54.84
695.6	54.38
695.8	53.38
696.0	52.42
696.2	52.36
696.4	51.44
696.6	52.74
696.8	52.42
697.0	52.12
697.2	52.14
697.4	51.67
697.6	50.93
697.8	51.23
698.0	49.99
698.2	50.27
698.4	50.10
698.6	49.53
698.8	48.61
699.0	48.32
699.2	47.81
699.4	47.61
699.6	47.36
699.8	47.21
700.0	46.80
700.2	46.99
700.4	46.87
700.6	46.52
700.8	46.69
701.0	47.02
701.2	46.67
701.4	46.82
701.6	46.08
701.8	44.60
702.0	43.92
702.2	43.98
702.4	44.11
702.6	44.55
702.8	45.43
703.0	44.97
703.2	44.28
703.4	43.59
703.6	43.25
703.8	42.31
704.0	42.73
704.2	42.14
704.4	40.96
704.6	40.56
704.8	40.74
705.0	40.85
705.2	41.30
705.4	41.12
705.6	39.99
705.8	39.75
706.0	39.47
706.2	39.37
706.4	39.93
706.6	39.96
706.8	39.04
707.0	38.73
707.2	38.14
707.4	37.79
707.6	38.12
707.8	38.66
708.0	38.45
708.2	37.76
708.4	37.29
708.6	37.27
708.8	36.56
709.0	36.17
709.2	36.00
709.4	35.53
709.6	35.56
709.8	36.10
710.0	36.41
710.2	36.76
710.4	36.60
710.6	35.59
710.8	34.33
711.0	33.60
711.2	33.84
711.4	34.98
711.6	35.42
711.8	35.05
712.0	34.46
712.2	34.34
712.4	33.78
712.6	34.10
712.8	34.04
713.0	33.27
713.2	31.91
713.4	31.15
713.6	30.49
713.8	30.61
714.0	31.22
714.2	31.47
714.4	31.74
714.6	31.80
714.8	31.40
715.0	30.96
715.2	31.18
715.4	30.82
715.6	30.58
715.8	30.49
716.0	30.05
716.2	29.29
716.4	29.63
716.6	29.34
716.8	28.54
717.0	28.35
717.2	28.63
717.4	28.31
717.6	28.68
717.8	28.47
718.0	28.46
718.2	28.36
718.4	28.41
718.6	27.73
718.8	26.52
719.0	25.76
719.2	25.98
719.4	26.46
719.6	26.53
719.8	26.57
720.0	26.59
720.2	26.67
720.4	26.54
720.6	26.30
720.8	25.94
721.0	25.79
721.2	25.63
721.4	25.42
721.6	24.63
721.8	24.17
722.0	24.53
722.2	25.07
722.4	24.77
722.6	24.89
722.8	24.21
723.0	23.59
723.2	22.75
723.4	22.60
723.6	22.07
723.8	22.76
724.0	23.20
724.2	23.58
724.4	23.22
724.6	23.00
724.8	22.37
725.0	21.90
725.2	21.55
725.4	21.11
725.6	21.24
725.8	21.46
726.0	21.48
726.2	21.29
726.4	20.88
726.6	20.07
726.8	19.76
727.0	19.68
727.2	19.84
727.4	20.14
727.6	20.27
727.8	20.40
728.0	19.98
728.2	20.09
728.4	19.85
728.6	19.32
728.8	19.33
729.0	19.26
729.2	19.10
729.4	19.55
729.6	19.45
729.8	18.75
730.0	18.77
730.2	18.49
730.4	18.70
730.6	18.25
730.8	17.92
731.0	16.96
731.2	17.07
731.4	17.21
731.6	17.59
731.8	17.41
732.0	17.78
732.2	17.56
732.4	17.46
732.6	17.26
732.8	17.07
733.0	16.77
733.2	16.86
733.4	16.78
733.6	16.88
733.8	16.54
734.0	16.77
734.2	16.32
734.4	16.20
734.6	15.93
734.8	15.95
735.0	15.55
735.2	15.31
735.4	14.88
735.6	15.06
735.8	15.49
736.0	15.79
736.2	15.65
736.4	15.19
736.6	15.01
736.8	14.76
737.0	14.89
737.2	14.74
737.4	14.60
737.6	14.49
737.8	14.61
738.0	14.37
738.2	14.03
738.4	13.77
738.6	14.00
738.8	13.89
739.0	13.91
739.2	13.97
739.4	13.96
739.6	13.90
739.8	13.56
740.0	13.47
740.2	13.24
740.4	13.30
740.6	13.38
740.8	12.92
741.0	12.21
741.2	12.15
741.4	12.26
741.6	12.74
741.8	13.15
742.0	12.82
742.2	12.56
742.4	12.39
742.6	12.42
742.8	12.54
743.0	12.49
743.2	11.91
743.4	11.79
743.6	11.79
743.8	11.77
744.0	11.86
744.2	11.60
744.4	11.06
744.6	10.89
744.8	10.90
745.0	10.83
745.2	10.93
745.4	10.82
745.6	10.74
745.8	10.45
746.0	10.57
746.2	10.69
746.4	10.66
746.6	10.62
746.8	10.85
747.0	10.34
747.2	10.09
747.4	9.960
747.6	9.886
747.8	10.05
748.0	10.52
748.2	10.35
748.4	10.04
748.6	10.00
748.8	10.23
749.0	10.50
749.2	10.93
749.4	10.54
749.6	10.10
749.8	9.965
750.0	10.01
750.2	9.750
750.4	9.633
750.6	9.131
750.8	9.319
751.0	9.809
751.2	9.984
751.4	9.912
751.6	9.772
751.8	9.357
752.0	9.207
752.2	9.169
752.4	9.058
752.6	8.970
752.8	8.965
753.0	8.935
753.2	8.994
753.4	9.044
753.6	9.039
753.8	8.995
754.0	8.649
754.2	8.618
754.4	8.382
754.6	8.332
754.8	8.143
755.0	8.470
755.2	8.436
755.4	8.282
755.6	8.112
755.8	8.083
756.0	7.875
756.2	7.937
756.4	8.199
756.6	8.024
756.8	8.149
757.0	7.942
757.2	7.985
757.4	8.034
757.6	7.897
757.8	7.864
758.0	7.915
758.2	7.500
758.4	7.409
758.6	7.294
758.8	7.159
759.0	7.566
759.2	7.785
759.4	7.657
759.6	7.264
759.8	7.080
760.0	7.053
760.2	7.008
760.4	6.953
760.6	6.935
760.8	6.937
761.0	7.016
761.2	6.927
761.4	6.675
761.6	6.659
761.8	6.545
762.0	6.378
762.2	6.494
762.4	6.442
762.6	6.638
762.8	6.913
763.0	7.014
763.2	6.584
763.4	6.580
763.6	6.282
763.8	6.347
764.0	6.281
764.2	6.202
764.4	6.121
764.6	6.139
764.8	6.120
765.0	6.337
765.2	6.294
765.4	6.438
765.6	6.481
765.8	6.198
766.0	5.879
766.2	5.818
766.4	5.741
766.6	6.036
766.8	6.159
767.0	6.181
767.2	6.074
767.4	5.985
767.6	5.792
767.8	5.758
768.0	5.772
768.2	5.806
768.4	5.914
768.6	5.748
768.8	5.651
769.0	5.742
769.2	5.800
769.4	5.815
769.6	5.884
769.8	5.809
770.0	5.954
770.2	6.035
770.4	5.804
770.6	5.428
770.8	5.160
771.0	5.197
771.2	5.442
771.4	5.514
771.6	5.461
771.8	5.172
772.0	4.915
772.2	4.682
772.4	4.662
772.6	4.478
772.8	4.987
773.0	5.280
773.2	5.480
773.4	5.258
773.6	4.937
773.8	4.306
774.0	4.443
774.2	4.708
774.4	4.854
774.6	4.943
774.8	5.071
775.0	4.837
775.2	4.825
775.4	4.933
775.6	4.807
775.8	4.961
776.0	4.998
776.2	4.781
776.4	4.584
776.6	4.399
776.8	4.428
777.0	4.460
777.2	4.474
777.4	4.466
777.6	4.440
777.8	4.248
778.0	4.335
778.2	4.341
778.4	4.556
778.6	4.512
778.8	4.420
779.0	4.305
779.2	4.177
779.4	4.227
779.6	4.257
779.8	4.112
780.0	3.964
780.2	4.303
780.4	4.351
780.6	4.113
780.8	4.003
781.0	3.812
781.2	3.675
781.4	4.037
781.6	4.143
781.8	3.740
782.0	4.042
782.2	4.217
782.4	4.194
782.6	4.074
782.8	3.892
783.0	3.609
783.2	3.979
783.4	4.197
783.6	3.901
783.8	3.639
784.0	3.497
784.2	3.654
784.4	3.971
784.6	4.139
784.8	4.132
785.0	4.098
785.2	3.945
785.4	3.869
785.6	3.722
785.8	3.637
786.0	3.751
786.2	3.734
786.4	3.624
786.6	3.725
786.8	3.715
787.0	3.701
787.2	3.639
787.4	3.675
787.6	3.612
787.8	3.932
788.0	3.969
788.2	4.048
788.4	3.733
788.6	3.814
788.8	3.691
789.0	3.733
789.2	3.680
789.4	3.616
789.6	3.360
789.8	3.548
790.0	3.399
790.2	3.535
790.4	3.813
790.6	3.848
790.8	3.890
791.0	4.011
791.2	3.806
791.4	3.905
791.6	4.023
791.8	3.867
792.0	3.702
792.2	3.512
792.4	3.446
792.6	3.402
792.8	3.646
793.0	3.694
793.2	3.747
793.4	3.470
793.6	3.377
793.8	3.130
794.0	3.495
794.2	3.579
794.4	3.696
794.6	3.692
794.8	3.583
795.0	3.562
795.2	3.530
795.4	3.349
795.6	3.336
795.8	3.530
796.0	3.525
796.2	3.650
796.4	3.493
796.6	3.469
796.8	3.460
797.0	3.592
797.2	3.675
797.4	3.750
797.6	3.912
797.8	3.913
798.0	3.870
798.2	3.938
798.4	3.784
798.6	3.558
798.8	3.662
799.0	3.500
799.2	3.734
799.4	3.849
799.6	3.688
799.8	3.460
800.0	3.250

