Sample:	'20211010A(EM)
File name:	G-NI 10.FDS
Run date:	'19:47:47, 06/19/2023
Operator:	Administrator
Comment:	'

Instrument
Model:	F-4700 FL Spectrophotometer
Serial number:	2019-001
ROM Version:	5J24010 00

Instrument parameters
Measurement type:	Wavelength scan
Scan mode:	Emission
Data mode:	Fluorescence
EX WL:	400.0 nm
EM  Start WL:	420.0 nm
EM  End WL:	800.0 nm
Scan speed:	1200 nm/min
Delay:	0.0 s
EX Slit:	10.0 nm
EM Slit:	10.0 nm
PMT Voltage:	500 V
Response:	0.002 s
Corrected spectra:	Off
Shutter control:	On

Processing performed
Savitsky-Golay smoothed
Smoothing order:	3
Number of points:	7
Number of times:	1

Peak integration
Integration method:	Rectangular
Sensitivity:	1
Threshold:	1.000

Peaks
No.	Start(nm)	Apex(nm)	End(nm)	Height(Data)	Valley(nm)	Valley(Data)
1	420.0	536.0	536.6	1599	536.6	1582
2	536.6	539.8	540.2	1604	540.2	1595
3	540.2	541.8	691.4	1605	691.4	52.41
4	691.4	692.4	724.4	54.35	724.4	18.70
5	724.4	724.8	728.2	19.93	728.2	16.78
6	728.2	729.0	733.8	17.86	733.8	13.76
7	733.8	734.6	745.2	15.16	745.2	9.516
8	745.2	745.8	800.0	10.59	800.0	3.534

Data points
nm	Data
420.0	0.971
420.2	1.015
420.4	1.083
420.6	1.160
420.8	1.232
421.0	1.259
421.2	1.299
421.4	1.321
421.6	1.226
421.8	1.244
422.0	1.211
422.2	1.266
422.4	1.300
422.6	1.313
422.8	1.211
423.0	1.229
423.2	1.227
423.4	1.321
423.6	1.286
423.8	1.224
424.0	1.188
424.2	1.198
424.4	1.191
424.6	1.266
424.8	1.145
425.0	1.240
425.2	1.259
425.4	1.160
425.6	1.166
425.8	1.342
426.0	1.299
426.2	1.526
426.4	1.392
426.6	1.299
426.8	1.213
427.0	1.204
427.2	1.151
427.4	1.260
427.6	1.235
427.8	1.255
428.0	1.144
428.2	1.105
428.4	1.036
428.6	1.101
428.8	1.055
429.0	1.145
429.2	1.260
429.4	1.404
429.6	1.242
429.8	1.173
430.0	1.058
430.2	1.176
430.4	1.275
430.6	1.244
430.8	1.158
431.0	1.081
431.2	0.972
431.4	1.144
431.6	1.277
431.8	1.274
432.0	1.377
432.2	1.350
432.4	1.279
432.6	1.349
432.8	1.321
433.0	1.308
433.2	1.150
433.4	1.063
433.6	1.111
433.8	1.128
434.0	1.144
434.2	1.306
434.4	1.246
434.6	1.250
434.8	1.326
435.0	1.299
435.2	1.232
435.4	1.340
435.6	1.410
435.8	1.367
436.0	1.364
436.2	1.239
436.4	1.133
436.6	1.144
436.8	1.144
437.0	1.053
437.2	1.146
437.4	1.189
437.6	1.115
437.8	1.065
438.0	1.096
438.2	1.178
438.4	1.307
438.6	1.473
438.8	1.425
439.0	1.387
439.2	1.278
439.4	1.261
439.6	1.218
439.8	1.240
440.0	1.327
440.2	1.395
440.4	1.321
440.6	1.319
440.8	1.340
441.0	1.196
441.2	1.186
441.4	1.222
441.6	1.323
441.8	1.461
442.0	1.467
442.2	1.243
442.4	1.167
442.6	1.071
442.8	1.076
443.0	1.214
443.2	1.219
443.4	1.223
443.6	1.257
443.8	1.237
444.0	1.282
444.2	1.318
444.4	1.215
444.6	1.121
444.8	1.019
445.0	1.057
445.2	1.066
445.4	1.215
445.6	1.270
445.8	1.298
446.0	1.327
446.2	1.448
446.4	1.474
446.6	1.505
446.8	1.321
447.0	1.135
447.2	0.893
447.4	0.943
447.6	1.083
447.8	1.100
448.0	1.079
448.2	1.243
448.4	1.265
448.6	1.352
448.8	1.411
449.0	1.483
449.2	1.489
449.4	1.673
449.6	1.561
449.8	1.445
450.0	1.336
450.2	1.347
450.4	1.248
450.6	1.418
450.8	1.350
451.0	1.303
451.2	1.294
451.4	1.335
451.6	1.266
451.8	1.462
452.0	1.572
452.2	1.414
452.4	1.306
452.6	1.298
452.8	1.280
453.0	1.394
453.2	1.574
453.4	1.613
453.6	1.659
453.8	1.725
454.0	1.566
454.2	1.282
454.4	1.325
454.6	1.511
454.8	1.672
455.0	1.810
455.2	1.645
455.4	1.443
455.6	1.422
455.8	1.450
456.0	1.546
456.2	1.680
456.4	1.590
456.6	1.517
456.8	1.415
457.0	1.318
457.2	1.270
457.4	1.398
457.6	1.509
457.8	1.507
458.0	1.536
458.2	1.555
458.4	1.533
458.6	1.680
458.8	1.838
459.0	1.719
459.2	1.569
459.4	1.514
459.6	1.458
459.8	1.471
460.0	1.681
460.2	1.786
460.4	1.783
460.6	1.796
460.8	1.682
461.0	1.546
461.2	1.459
461.4	1.548
461.6	1.487
461.8	1.603
462.0	1.588
462.2	1.636
462.4	1.681
462.6	1.841
462.8	1.860
463.0	1.995
463.2	1.900
463.4	1.955
463.6	1.958
463.8	1.803
464.0	1.819
464.2	1.888
464.4	1.926
464.6	2.161
464.8	2.236
465.0	2.316
465.2	2.377
465.4	2.415
465.6	2.265
465.8	2.108
466.0	1.949
466.2	1.977
466.4	1.911
466.6	2.062
466.8	2.142
467.0	2.470
467.2	2.656
467.4	2.595
467.6	2.327
467.8	2.239
468.0	2.289
468.2	2.564
468.4	2.752
468.6	2.729
468.8	2.737
469.0	3.014
469.2	3.496
469.4	3.611
469.6	3.405
469.8	3.113
470.0	3.143
470.2	3.527
470.4	3.915
470.6	4.035
470.8	3.950
471.0	3.789
471.2	3.921
471.4	4.002
471.6	4.199
471.8	4.184
472.0	4.221
472.2	4.069
472.4	4.334
472.6	4.479
472.8	5.148
473.0	5.315
473.2	5.470
473.4	5.480
473.6	5.467
473.8	5.511
474.0	5.914
474.2	6.132
474.4	6.652
474.6	6.952
474.8	7.245
475.0	7.602
475.2	7.666
475.4	7.725
475.6	8.209
475.8	8.391
476.0	8.838
476.2	9.034
476.4	9.032
476.6	9.133
476.8	9.823
477.0	9.964
477.2	10.28
477.4	10.61
477.6	10.94
477.8	11.43
478.0	12.28
478.2	12.76
478.4	13.01
478.6	13.11
478.8	13.45
479.0	14.32
479.2	14.78
479.4	15.41
479.6	15.58
479.8	16.08
480.0	16.79
480.2	17.74
480.4	18.51
480.6	19.22
480.8	20.00
481.0	21.14
481.2	21.56
481.4	22.40
481.6	23.38
481.8	24.16
482.0	25.01
482.2	26.49
482.4	27.48
482.6	28.41
482.8	28.87
483.0	29.91
483.2	31.19
483.4	32.19
483.6	33.51
483.8	33.95
484.0	34.74
484.2	36.35
484.4	38.09
484.6	38.56
484.8	39.35
485.0	40.42
485.2	42.69
485.4	44.81
485.6	46.93
485.8	48.35
486.0	49.21
486.2	50.32
486.4	51.80
486.6	53.23
486.8	55.23
487.0	57.99
487.2	61.17
487.4	63.99
487.6	65.64
487.8	67.51
488.0	68.21
488.2	69.12
488.4	71.71
488.6	75.13
488.8	78.30
489.0	82.51
489.2	83.63
489.4	85.15
489.6	87.08
489.8	89.00
490.0	92.15
490.2	95.33
490.4	97.89
490.6	101.5
490.8	105.4
491.0	107.8
491.2	110.7
491.4	113.6
491.6	117.8
491.8	121.7
492.0	127.0
492.2	130.9
492.4	133.8
492.6	137.9
492.8	141.1
493.0	145.2
493.2	149.7
493.4	154.4
493.6	158.0
493.8	164.3
494.0	169.4
494.2	173.3
494.4	176.6
494.6	181.2
494.8	185.7
495.0	191.4
495.2	197.3
495.4	200.2
495.6	205.3
495.8	211.5
496.0	217.0
496.2	221.8
496.4	227.1
496.6	231.5
496.8	237.1
497.0	243.2
497.2	249.4
497.4	256.4
497.6	262.7
497.8	269.4
498.0	274.8
498.2	280.3
498.4	288.9
498.6	296.7
498.8	302.8
499.0	309.0
499.2	314.6
499.4	320.0
499.6	328.6
499.8	335.0
500.0	342.5
500.2	350.4
500.4	357.6
500.6	364.8
500.8	370.9
501.0	380.1
501.2	389.6
501.4	401.2
501.6	410.6
501.8	418.5
502.0	423.6
502.2	429.5
502.4	433.9
502.6	443.6
502.8	451.3
503.0	464.1
503.2	475.5
503.4	483.3
503.6	491.3
503.8	500.0
504.0	506.7
504.2	517.0
504.4	523.9
504.6	531.4
504.8	539.4
505.0	551.6
505.2	564.2
505.4	576.3
505.6	585.0
505.8	594.5
506.0	603.6
506.2	614.0
506.4	622.4
506.6	631.1
506.8	635.9
507.0	644.6
507.2	656.5
507.4	666.7
507.6	677.0
507.8	687.3
508.0	693.1
508.2	704.6
508.4	713.3
508.6	721.9
508.8	729.9
509.0	741.1
509.2	752.7
509.4	764.4
509.6	775.5
509.8	783.3
510.0	792.6
510.2	805.5
510.4	814.8
510.6	821.0
510.8	833.7
511.0	841.9
511.2	854.0
511.4	865.2
511.6	873.1
511.8	880.3
512.0	894.0
512.2	904.7
512.4	911.3
512.6	918.9
512.8	926.9
513.0	936.3
513.2	946.9
513.4	959.5
513.6	969.6
513.8	981.0
514.0	990.4
514.2	1003
514.4	1005
514.6	1014
514.8	1022
515.0	1034
515.2	1046
515.4	1062
515.6	1068
515.8	1076
516.0	1084
516.2	1095
516.4	1105
516.6	1115
516.8	1119
517.0	1128
517.2	1136
517.4	1143
517.6	1155
517.8	1167
518.0	1176
518.2	1184
518.4	1190
518.6	1195
518.8	1205
519.0	1212
519.2	1218
519.4	1226
519.6	1234
519.8	1242
520.0	1252
520.2	1259
520.4	1268
520.6	1280
520.8	1286
521.0	1293
521.2	1304
521.4	1313
521.6	1321
521.8	1325
522.0	1326
522.2	1331
522.4	1339
522.6	1347
522.8	1358
523.0	1359
523.2	1362
523.4	1363
523.6	1368
523.8	1375
524.0	1384
524.2	1387
524.4	1394
524.6	1403
524.8	1411
525.0	1421
525.2	1428
525.4	1431
525.6	1433
525.8	1436
526.0	1436
526.2	1441
526.4	1450
526.6	1462
526.8	1467
527.0	1472
527.2	1476
527.4	1477
527.6	1482
527.8	1485
528.0	1484
528.2	1491
528.4	1495
528.6	1501
528.8	1508
529.0	1505
529.2	1508
529.4	1518
529.6	1525
529.8	1534
530.0	1537
530.2	1537
530.4	1539
530.6	1537
530.8	1540
531.0	1542
531.2	1544
531.4	1549
531.6	1550
531.8	1548
532.0	1548
532.2	1545
532.4	1547
532.6	1554
532.8	1558
533.0	1568
533.2	1573
533.4	1575
533.6	1574
533.8	1576
534.0	1574
534.2	1579
534.4	1581
534.6	1581
534.8	1581
535.0	1582
535.2	1580
535.4	1584
535.6	1591
535.8	1596
536.0	1599
536.2	1593
536.4	1584
536.6	1582
536.8	1585
537.0	1591
537.2	1597
537.4	1598
537.6	1596
537.8	1595
538.0	1593
538.2	1593
538.4	1598
538.6	1602
538.8	1601
539.0	1597
539.2	1595
539.4	1596
539.6	1602
539.8	1604
540.0	1600
540.2	1595
540.4	1596
540.6	1599
540.8	1601
541.0	1601
541.2	1596
541.4	1595
541.6	1599
541.8	1605
542.0	1601
542.2	1601
542.4	1598
542.6	1597
542.8	1597
543.0	1599
543.2	1594
543.4	1592
543.6	1585
543.8	1581
544.0	1580
544.2	1582
544.4	1586
544.6	1589
544.8	1582
545.0	1576
545.2	1572
545.4	1576
545.6	1579
545.8	1581
546.0	1581
546.2	1577
546.4	1569
546.6	1568
546.8	1566
547.0	1562
547.2	1561
547.4	1563
547.6	1558
547.8	1558
548.0	1559
548.2	1554
548.4	1554
548.6	1552
548.8	1550
549.0	1553
549.2	1547
549.4	1544
549.6	1547
549.8	1540
550.0	1541
550.2	1541
550.4	1533
550.6	1530
550.8	1531
551.0	1526
551.2	1520
551.4	1516
551.6	1513
551.8	1515
552.0	1518
552.2	1516
552.4	1510
552.6	1508
552.8	1507
553.0	1509
553.2	1507
553.4	1499
553.6	1492
553.8	1493
554.0	1489
554.2	1489
554.4	1487
554.6	1487
554.8	1485
555.0	1487
555.2	1480
555.4	1476
555.6	1473
555.8	1476
556.0	1474
556.2	1467
556.4	1457
556.6	1450
556.8	1445
557.0	1447
557.2	1446
557.4	1443
557.6	1442
557.8	1436
558.0	1434
558.2	1431
558.4	1431
558.6	1428
558.8	1427
559.0	1420
559.2	1412
559.4	1406
559.6	1404
559.8	1404
560.0	1404
560.2	1405
560.4	1401
560.6	1398
560.8	1389
561.0	1385
561.2	1382
561.4	1380
561.6	1379
561.8	1374
562.0	1368
562.2	1366
562.4	1365
562.6	1361
562.8	1358
563.0	1354
563.2	1350
563.4	1345
563.6	1339
563.8	1337
564.0	1335
564.2	1338
564.4	1336
564.6	1330
564.8	1322
565.0	1318
565.2	1313
565.4	1313
565.6	1312
565.8	1309
566.0	1304
566.2	1301
566.4	1295
566.6	1292
566.8	1291
567.0	1288
567.2	1288
567.4	1287
567.6	1283
567.8	1276
568.0	1270
568.2	1262
568.4	1255
568.6	1253
568.8	1253
569.0	1248
569.2	1247
569.4	1242
569.6	1235
569.8	1233
570.0	1231
570.2	1226
570.4	1219
570.6	1212
570.8	1210
571.0	1211
571.2	1211
571.4	1208
571.6	1201
571.8	1196
572.0	1195
572.2	1189
572.4	1183
572.6	1176
572.8	1169
573.0	1164
573.2	1164
573.4	1166
573.6	1166
573.8	1168
574.0	1167
574.2	1155
574.4	1145
574.6	1145
574.8	1143
575.0	1139
575.2	1136
575.4	1132
575.6	1124
575.8	1119
576.0	1116
576.2	1108
576.4	1106
576.6	1106
576.8	1100
577.0	1096
577.2	1093
577.4	1089
577.6	1092
577.8	1090
578.0	1087
578.2	1083
578.4	1074
578.6	1066
578.8	1061
579.0	1057
579.2	1057
579.4	1055
579.6	1053
579.8	1047
580.0	1040
580.2	1033
580.4	1030
580.6	1026
580.8	1025
581.0	1020
581.2	1017
581.4	1017
581.6	1019
581.8	1012
582.0	1008
582.2	1003
582.4	997.8
582.6	994.1
582.8	995.8
583.0	985.1
583.2	980.7
583.4	977.4
583.6	970.6
583.8	967.6
584.0	967.8
584.2	962.6
584.4	956.1
584.6	952.9
584.8	950.2
585.0	951.8
585.2	952.0
585.4	951.3
585.6	940.4
585.8	936.4
586.0	930.1
586.2	926.8
586.4	923.9
586.6	921.5
586.8	915.4
587.0	911.9
587.2	906.6
587.4	901.9
587.6	898.3
587.8	898.2
588.0	894.9
588.2	892.8
588.4	890.3
588.6	890.8
588.8	888.7
589.0	886.3
589.2	877.0
589.4	868.1
589.6	859.8
589.8	859.6
590.0	857.9
590.2	859.9
590.4	857.2
590.6	852.7
590.8	848.9
591.0	845.0
591.2	838.6
591.4	838.6
591.6	835.3
591.8	833.4
592.0	831.0
592.2	827.9
592.4	821.4
592.6	815.7
592.8	810.6
593.0	805.6
593.2	800.7
593.4	800.4
593.6	798.7
593.8	795.2
594.0	792.0
594.2	786.0
594.4	782.6
594.6	783.9
594.8	783.8
595.0	783.3
595.2	778.8
595.4	772.5
595.6	767.8
595.8	764.5
596.0	764.1
596.2	765.0
596.4	759.4
596.6	755.5
596.8	749.9
597.0	743.4
597.2	742.9
597.4	742.8
597.6	740.2
597.8	740.4
598.0	736.3
598.2	731.3
598.4	727.5
598.6	721.6
598.8	717.1
599.0	714.8
599.2	713.8
599.4	712.6
599.6	710.3
599.8	704.5
600.0	698.4
600.2	698.3
600.4	699.3
600.6	699.0
600.8	696.4
601.0	689.3
601.2	682.7
601.4	681.5
601.6	675.6
601.8	674.5
602.0	674.3
602.2	669.5
602.4	665.7
602.6	662.5
602.8	655.7
603.0	654.3
603.2	655.4
603.4	653.2
603.6	650.4
603.8	645.6
604.0	640.8
604.2	635.4
604.4	635.1
604.6	634.7
604.8	633.6
605.0	630.3
605.2	626.4
605.4	617.6
605.6	614.9
605.8	613.6
606.0	614.8
606.2	615.2
606.4	613.5
606.6	606.9
606.8	601.3
607.0	596.7
607.2	594.4
607.4	591.7
607.6	588.0
607.8	587.0
608.0	586.2
608.2	582.8
608.4	579.7
608.6	575.7
608.8	575.3
609.0	573.5
609.2	572.1
609.4	569.7
609.6	565.8
609.8	561.1
610.0	562.6
610.2	558.8
610.4	555.8
610.6	555.4
610.8	550.9
611.0	544.8
611.2	543.7
611.4	541.7
611.6	538.9
611.8	535.9
612.0	532.0
612.2	527.3
612.4	525.7
612.6	524.9
612.8	524.6
613.0	522.4
613.2	522.8
613.4	520.7
613.6	517.9
613.8	516.7
614.0	514.8
614.2	510.4
614.4	507.6
614.6	501.7
614.8	497.7
615.0	494.9
615.2	491.9
615.4	488.4
615.6	486.3
615.8	485.4
616.0	485.5
616.2	485.1
616.4	481.8
616.6	479.0
616.8	479.0
617.0	478.2
617.2	473.0
617.4	469.6
617.6	464.7
617.8	462.6
618.0	463.0
618.2	462.0
618.4	455.6
618.6	453.1
618.8	452.3
619.0	449.2
619.2	446.9
619.4	443.6
619.6	439.9
619.8	438.5
620.0	439.1
620.2	436.9
620.4	436.2
620.6	433.3
620.8	428.4
621.0	425.9
621.2	424.1
621.4	421.5
621.6	421.4
621.8	419.8
622.0	415.9
622.2	415.9
622.4	413.8
622.6	410.3
622.8	407.9
623.0	405.6
623.2	405.6
623.4	406.8
623.6	404.3
623.8	401.9
624.0	396.1
624.2	392.9
624.4	393.1
624.6	392.4
624.8	390.0
625.0	386.0
625.2	381.2
625.4	379.9
625.6	380.4
625.8	379.0
626.0	375.9
626.2	372.0
626.4	372.0
626.6	371.0
626.8	372.0
627.0	370.3
627.2	366.8
627.4	364.1
627.6	361.5
627.8	358.5
628.0	358.0
628.2	355.7
628.4	353.5
628.6	350.9
628.8	347.3
629.0	344.1
629.2	342.8
629.4	340.8
629.6	339.5
629.8	337.1
630.0	336.8
630.2	336.4
630.4	336.8
630.6	334.8
630.8	332.1
631.0	329.6
631.2	327.6
631.4	325.2
631.6	323.7
631.8	319.9
632.0	316.8
632.2	316.8
632.4	314.8
632.6	311.7
632.8	310.7
633.0	307.8
633.2	306.5
633.4	306.4
633.6	305.8
633.8	304.0
634.0	303.3
634.2	300.8
634.4	298.4
634.6	297.5
634.8	295.9
635.0	294.3
635.2	293.2
635.4	291.7
635.6	288.2
635.8	288.0
636.0	284.8
636.2	281.5
636.4	278.8
636.6	277.0
636.8	275.2
637.0	276.8
637.2	277.6
637.4	275.1
637.6	273.9
637.8	271.8
638.0	270.1
638.2	268.3
638.4	267.8
638.6	266.0
638.8	265.2
639.0	264.3
639.2	263.4
639.4	260.8
639.6	259.0
639.8	258.2
640.0	257.4
640.2	255.9
640.4	254.2
640.6	251.1
640.8	247.4
641.0	244.5
641.2	245.9
641.4	246.5
641.6	246.2
641.8	245.3
642.0	242.4
642.2	240.9
642.4	241.2
642.6	239.9
642.8	237.5
643.0	235.0
643.2	232.5
643.4	231.7
643.6	231.9
643.8	229.2
644.0	227.8
644.2	227.2
644.4	225.8
644.6	225.4
644.8	223.8
645.0	220.6
645.2	218.4
645.4	216.5
645.6	215.5
645.8	215.3
646.0	215.1
646.2	213.8
646.4	212.8
646.6	210.8
646.8	209.4
647.0	208.2
647.2	207.5
647.4	204.4
647.6	203.5
647.8	202.4
648.0	202.1
648.2	202.8
648.4	201.6
648.6	199.9
648.8	198.8
649.0	196.8
649.2	194.9
649.4	193.5
649.6	192.4
649.8	191.6
650.0	191.3
650.2	189.8
650.4	186.7
650.6	186.1
650.8	185.2
651.0	185.3
651.2	185.1
651.4	185.5
651.6	183.9
651.8	183.1
652.0	181.5
652.2	179.9
652.4	178.4
652.6	178.2
652.8	175.9
653.0	174.5
653.2	173.4
653.4	171.2
653.6	169.6
653.8	169.2
654.0	167.1
654.2	165.2
654.4	163.6
654.6	164.1
654.8	165.2
655.0	166.2
655.2	166.1
655.4	162.9
655.6	160.7
655.8	159.9
656.0	159.4
656.2	158.9
656.4	157.8
656.6	156.7
656.8	156.5
657.0	156.4
657.2	155.3
657.4	154.2
657.6	150.4
657.8	149.2
658.0	148.9
658.2	148.6
658.4	148.8
658.6	149.5
658.8	147.9
659.0	146.3
659.2	144.8
659.4	142.8
659.6	141.6
659.8	142.2
660.0	142.4
660.2	141.1
660.4	140.6
660.6	140.5
660.8	139.3
661.0	138.7
661.2	137.1
661.4	134.7
661.6	134.2
661.8	133.7
662.0	133.8
662.2	131.7
662.4	130.5
662.6	129.5
662.8	129.8
663.0	129.7
663.2	128.5
663.4	126.0
663.6	126.3
663.8	125.8
664.0	126.4
664.2	126.5
664.4	125.3
664.6	123.8
664.8	122.7
665.0	121.0
665.2	118.7
665.4	117.3
665.6	118.3
665.8	119.1
666.0	119.4
666.2	119.7
666.4	116.6
666.6	114.3
666.8	114.1
667.0	113.2
667.2	113.3
667.4	113.8
667.6	111.9
667.8	110.4
668.0	109.4
668.2	108.0
668.4	107.1
668.6	106.2
668.8	106.3
669.0	105.6
669.2	105.0
669.4	104.5
669.6	104.5
669.8	104.5
670.0	104.1
670.2	102.7
670.4	101.7
670.6	101.2
670.8	101.7
671.0	101.0
671.2	99.86
671.4	98.64
671.6	98.63
671.8	98.22
672.0	97.18
672.2	95.63
672.4	96.04
672.6	96.05
672.8	96.95
673.0	95.39
673.2	93.00
673.4	91.02
673.6	91.52
673.8	91.47
674.0	91.65
674.2	90.86
674.4	90.34
674.6	89.55
674.8	89.44
675.0	89.06
675.2	87.49
675.4	86.85
675.6	86.69
675.8	85.51
676.0	84.73
676.2	85.07
676.4	83.81
676.6	83.05
676.8	83.24
677.0	82.55
677.2	81.71
677.4	81.36
677.6	80.70
677.8	79.54
678.0	79.52
678.2	79.15
678.4	77.57
678.6	77.87
678.8	78.13
679.0	76.70
679.2	76.26
679.4	75.39
679.6	74.30
679.8	75.08
680.0	75.82
680.2	75.41
680.4	75.17
680.6	73.99
680.8	73.10
681.0	71.72
681.2	70.85
681.4	70.97
681.6	69.99
681.8	69.83
682.0	69.96
682.2	70.41
682.4	70.79
682.6	70.82
682.8	68.92
683.0	68.63
683.2	67.30
683.4	66.97
683.6	66.55
683.8	66.04
684.0	65.57
684.2	66.15
684.4	65.85
684.6	65.85
684.8	65.06
685.0	64.79
685.2	63.55
685.4	62.57
685.6	61.79
685.8	61.50
686.0	61.35
686.2	61.73
686.4	61.23
686.6	61.53
686.8	60.42
687.0	60.20
687.2	60.52
687.4	59.45
687.6	58.65
687.8	58.30
688.0	57.02
688.2	57.19
688.4	58.11
688.6	57.64
688.8	57.81
689.0	57.54
689.2	57.22
689.4	56.62
689.6	56.41
689.8	55.68
690.0	55.07
690.2	54.11
690.4	53.90
690.6	53.22
690.8	53.03
691.0	52.55
691.2	52.61
691.4	52.41
691.6	52.44
691.8	53.03
692.0	53.58
692.2	53.78
692.4	54.35
692.6	53.34
692.8	52.88
693.0	52.04
693.2	50.45
693.4	49.70
693.6	49.76
693.8	49.13
694.0	49.38
694.2	48.95
694.4	47.65
694.6	47.25
694.8	47.64
695.0	48.15
695.2	47.60
695.4	47.60
695.6	46.77
695.8	45.98
696.0	45.68
696.2	46.31
696.4	46.21
696.6	46.74
696.8	46.01
697.0	45.47
697.2	44.77
697.4	45.17
697.6	45.50
697.8	45.72
698.0	45.01
698.2	44.85
698.4	44.36
698.6	44.31
698.8	43.83
699.0	43.53
699.2	43.16
699.4	43.18
699.6	43.13
699.8	42.93
700.0	42.10
700.2	41.28
700.4	40.46
700.6	40.06
700.8	40.84
701.0	41.07
701.2	41.17
701.4	40.61
701.6	40.52
701.8	39.40
702.0	39.58
702.2	39.18
702.4	39.03
702.6	38.07
702.8	37.97
703.0	38.01
703.2	38.40
703.4	38.50
703.6	39.08
703.8	38.21
704.0	37.47
704.2	37.21
704.4	37.04
704.6	36.59
704.8	36.98
705.0	36.40
705.2	36.46
705.4	35.82
705.6	35.43
705.8	34.91
706.0	34.46
706.2	34.36
706.4	35.23
706.6	35.78
706.8	35.57
707.0	34.89
707.2	33.79
707.4	33.40
707.6	32.60
707.8	32.64
708.0	32.57
708.2	32.37
708.4	32.20
708.6	32.32
708.8	31.39
709.0	31.63
709.2	31.45
709.4	31.83
709.6	31.82
709.8	31.92
710.0	31.94
710.2	31.79
710.4	30.97
710.6	31.13
710.8	30.90
711.0	31.08
711.2	31.31
711.4	30.44
711.6	29.62
711.8	29.69
712.0	29.72
712.2	29.88
712.4	30.16
712.6	29.74
712.8	29.69
713.0	29.93
713.2	29.64
713.4	29.17
713.6	28.48
713.8	27.61
714.0	27.51
714.2	27.57
714.4	27.42
714.6	27.50
714.8	27.24
715.0	27.51
715.2	27.70
715.4	27.86
715.6	27.79
715.8	27.61
716.0	27.17
716.2	26.43
716.4	25.35
716.6	25.43
716.8	25.14
717.0	24.82
717.2	24.77
717.4	24.44
717.6	24.40
717.8	25.38
718.0	25.68
718.2	25.39
718.4	24.70
718.6	23.95
718.8	23.68
719.0	23.49
719.2	23.74
719.4	23.84
719.6	23.57
719.8	23.23
720.0	23.44
720.2	23.38
720.4	23.41
720.6	23.42
720.8	23.59
721.0	23.17
721.2	22.94
721.4	22.39
721.6	21.97
721.8	21.84
722.0	22.24
722.2	22.00
722.4	22.19
722.6	21.72
722.8	21.60
723.0	21.25
723.2	21.07
723.4	20.68
723.6	20.49
723.8	19.40
724.0	18.95
724.2	18.74
724.4	18.70
724.6	19.23
724.8	19.93
725.0	19.88
725.2	19.67
725.4	19.61
725.6	19.29
725.8	18.85
726.0	18.90
726.2	19.06
726.4	19.26
726.6	19.33
726.8	19.42
727.0	18.93
727.2	18.30
727.4	18.01
727.6	18.08
727.8	17.49
728.0	16.85
728.2	16.78
728.4	17.03
728.6	17.22
728.8	17.79
729.0	17.86
729.2	17.63
729.4	17.55
729.6	17.40
729.8	16.83
730.0	16.84
730.2	16.93
730.4	16.35
730.6	15.78
730.8	15.28
731.0	15.28
731.2	15.78
731.4	15.86
731.6	15.60
731.8	14.92
732.0	14.73
732.2	14.63
732.4	14.94
732.6	15.00
732.8	15.47
733.0	14.80
733.2	14.66
733.4	14.08
733.6	13.92
733.8	13.76
734.0	14.15
734.2	14.25
734.4	14.68
734.6	15.16
734.8	15.04
735.0	14.73
735.2	14.16
735.4	14.15
735.6	14.08
735.8	14.68
736.0	14.54
736.2	14.41
736.4	13.66
736.6	13.27
736.8	13.03
737.0	13.02
737.2	12.90
737.4	13.07
737.6	13.25
737.8	13.13
738.0	12.90
738.2	12.75
738.4	12.56
738.6	12.69
738.8	12.87
739.0	12.71
739.2	12.13
739.4	11.98
739.6	11.92
739.8	12.26
740.0	12.49
740.2	12.44
740.4	12.36
740.6	12.02
740.8	12.08
741.0	11.96
741.2	11.98
741.4	11.73
741.6	11.32
741.8	11.25
742.0	11.19
742.2	11.03
742.4	11.05
742.6	10.90
742.8	10.75
743.0	11.06
743.2	10.87
743.4	10.84
743.6	10.77
743.8	10.58
744.0	10.55
744.2	10.92
744.4	10.90
744.6	10.77
744.8	10.38
745.0	9.809
745.2	9.516
745.4	9.918
745.6	10.36
745.8	10.59
746.0	10.52
746.2	10.27
746.4	10.15
746.6	9.580
746.8	9.444
747.0	9.210
747.2	9.154
747.4	9.083
747.6	9.352
747.8	9.285
748.0	9.713
748.2	9.882
748.4	9.593
748.6	9.246
748.8	9.175
749.0	9.113
749.2	9.167
749.4	9.157
749.6	8.959
749.8	8.861
750.0	8.969
750.2	8.961
750.4	8.745
750.6	8.696
750.8	8.748
751.0	8.796
751.2	8.544
751.4	8.471
751.6	8.226
751.8	8.207
752.0	8.066
752.2	8.046
752.4	7.814
752.6	7.913
752.8	7.804
753.0	7.878
753.2	7.657
753.4	7.710
753.6	7.736
753.8	7.880
754.0	7.893
754.2	8.010
754.4	7.849
754.6	7.360
754.8	7.163
755.0	7.150
755.2	7.161
755.4	7.670
755.6	8.014
755.8	7.890
756.0	7.835
756.2	7.520
756.4	7.280
756.6	7.202
756.8	7.135
757.0	7.531
757.2	7.312
757.4	7.045
757.6	7.116
757.8	6.805
758.0	6.815
758.2	6.951
758.4	6.636
758.6	6.555
758.8	6.734
759.0	6.554
759.2	6.611
759.4	6.779
759.6	6.905
759.8	7.076
760.0	6.973
760.2	6.585
760.4	6.025
760.6	6.098
760.8	6.247
761.0	6.285
761.2	6.417
761.4	6.248
761.6	6.026
761.8	6.383
762.0	6.532
762.2	6.361
762.4	6.303
762.6	6.112
762.8	6.038
763.0	6.258
763.2	6.149
763.4	5.968
763.6	5.873
763.8	6.026
764.0	5.918
764.2	5.878
764.4	5.584
764.6	5.516
764.8	5.597
765.0	5.974
765.2	6.085
765.4	6.154
765.6	5.618
765.8	5.318
766.0	5.191
766.2	5.489
766.4	5.609
766.6	5.873
766.8	6.021
767.0	5.758
767.2	5.405
767.4	5.158
767.6	4.924
767.8	4.930
768.0	5.183
768.2	5.121
768.4	5.103
768.6	5.125
768.8	5.272
769.0	5.176
769.2	5.154
769.4	5.069
769.6	5.066
769.8	5.069
770.0	5.225
770.2	5.127
770.4	5.253
770.6	5.152
770.8	5.005
771.0	4.848
771.2	4.834
771.4	4.667
771.6	4.667
771.8	4.603
772.0	4.475
772.2	4.439
772.4	4.703
772.6	4.910
772.8	4.878
773.0	4.784
773.2	4.717
773.4	4.453
773.6	4.370
773.8	4.334
774.0	4.263
774.2	4.385
774.4	4.627
774.6	4.634
774.8	4.584
775.0	4.457
775.2	4.409
775.4	4.243
775.6	4.210
775.8	4.197
776.0	4.202
776.2	4.388
776.4	4.464
776.6	4.348
776.8	4.376
777.0	4.278
777.2	4.024
777.4	4.055
777.6	3.912
777.8	3.735
778.0	3.852
778.2	3.903
778.4	3.918
778.6	3.998
778.8	3.968
779.0	3.739
779.2	3.707
779.4	3.644
779.6	3.744
779.8	3.825
780.0	3.836
780.2	3.743
780.4	3.648
780.6	3.555
780.8	3.554
781.0	3.622
781.2	3.761
781.4	3.954
781.6	3.963
781.8	4.029
782.0	4.003
782.2	3.963
782.4	3.969
782.6	3.777
782.8	3.574
783.0	3.444
783.2	3.361
783.4	3.474
783.6	3.677
783.8	3.517
784.0	3.450
784.2	3.270
784.4	3.145
784.6	3.370
784.8	3.542
785.0	3.403
785.2	3.347
785.4	3.338
785.6	3.561
785.8	3.897
786.0	3.899
786.2	3.782
786.4	3.669
786.6	3.362
786.8	3.534
787.0	3.599
787.2	3.634
787.4	3.627
787.6	3.594
787.8	3.389
788.0	3.418
788.2	3.465
788.4	3.476
788.6	3.408
788.8	3.476
789.0	3.470
789.2	3.258
789.4	3.369
789.6	3.304
789.8	3.127
790.0	3.253
790.2	3.252
790.4	3.094
790.6	3.261
790.8	3.284
791.0	3.138
791.2	3.162
791.4	2.987
791.6	2.990
791.8	3.193
792.0	3.477
792.2	3.652
792.4	3.772
792.6	3.346
792.8	3.117
793.0	3.158
793.2	3.438
793.4	3.687
793.6	3.674
793.8	3.371
794.0	3.085
794.2	3.037
794.4	3.199
794.6	3.403
794.8	3.232
795.0	3.369
795.2	3.280
795.4	3.091
795.6	3.061
795.8	2.898
796.0	2.831
796.2	3.006
796.4	3.161
796.6	3.180
796.8	3.240
797.0	2.935
797.2	2.762
797.4	2.607
797.6	2.740
797.8	2.985
798.0	3.049
798.2	3.121
798.4	3.158
798.6	3.123
798.8	3.351
799.0	3.337
799.2	3.158
799.4	3.181
799.6	3.159
799.8	3.252
800.0	3.534

