Sample:	'20211010A(EM)
File name:	G-NI 5 500.FDS
Run date:	'19:27:06, 06/19/2023
Operator:	Administrator
Comment:	'

Instrument
Model:	F-4700 FL Spectrophotometer
Serial number:	2019-001
ROM Version:	5J24010 00

Instrument parameters
Measurement type:	Wavelength scan
Scan mode:	Emission
Data mode:	Fluorescence
EX WL:	400.0 nm
EM  Start WL:	420.0 nm
EM  End WL:	800.0 nm
Scan speed:	1200 nm/min
Delay:	0.0 s
EX Slit:	10.0 nm
EM Slit:	10.0 nm
PMT Voltage:	500 V
Response:	0.002 s
Corrected spectra:	Off
Shutter control:	On

Processing performed
Savitsky-Golay smoothed
Smoothing order:	3
Number of points:	7
Number of times:	1

Peak integration
Integration method:	Rectangular
Sensitivity:	1
Threshold:	1.000

Peaks
No.	Start(nm)	Apex(nm)	End(nm)	Height(Data)	Valley(nm)	Valley(Data)
1	420.0	546.6	547.4	7154	547.4	7130
2	547.4	548.0	754.8	7144	754.8	25.72
3	754.8	755.4	762.0	26.75	762.0	19.98
4	762.0	762.6	767.0	21.06	767.0	16.81
5	767.0	768.6	784.2	17.95	784.2	10.45
6	784.2	787.0	792.4	11.67	792.4	10.18
7	792.4	794.0	800.0	11.32	800.0	10.19

Data points
nm	Data
420.0	2.912
420.2	2.701
420.4	2.713
420.6	2.860
420.8	3.089
421.0	3.091
421.2	2.920
421.4	2.950
421.6	2.917
421.8	3.127
422.0	3.243
422.2	2.979
422.4	2.636
422.6	2.489
422.8	2.531
423.0	2.808
423.2	2.856
423.4	2.723
423.6	2.748
423.8	2.855
424.0	2.903
424.2	3.016
424.4	3.030
424.6	2.891
424.8	2.971
425.0	3.025
425.2	3.056
425.4	3.100
425.6	3.180
425.8	2.927
426.0	2.739
426.2	2.534
426.4	2.847
426.6	3.071
426.8	3.281
427.0	3.127
427.2	2.840
427.4	2.783
427.6	3.040
427.8	3.221
428.0	3.271
428.2	3.109
428.4	2.915
428.6	2.969
428.8	3.037
429.0	3.247
429.2	3.332
429.4	3.073
429.6	2.897
429.8	2.847
430.0	2.705
430.2	2.971
430.4	3.208
430.6	3.000
430.8	2.943
431.0	3.139
431.2	3.152
431.4	3.308
431.6	3.210
431.8	3.121
432.0	2.969
432.2	3.095
432.4	3.059
432.6	2.919
432.8	2.915
433.0	3.086
433.2	3.101
433.4	3.234
433.6	3.078
433.8	2.954
434.0	3.002
434.2	2.964
434.4	2.961
434.6	3.133
434.8	3.186
435.0	3.271
435.2	3.284
435.4	3.347
435.6	3.297
435.8	3.264
436.0	3.344
436.2	3.336
436.4	3.355
436.6	3.339
436.8	3.361
437.0	3.310
437.2	3.272
437.4	3.338
437.6	3.557
437.8	3.457
438.0	3.529
438.2	3.458
438.4	3.329
438.6	3.332
438.8	3.322
439.0	3.321
439.2	3.341
439.4	3.319
439.6	3.314
439.8	3.545
440.0	3.657
440.2	3.587
440.4	3.727
440.6	3.598
440.8	3.552
441.0	3.678
441.2	3.744
441.4	3.710
441.6	3.781
441.8	3.503
442.0	3.538
442.2	3.710
442.4	3.670
442.6	3.678
442.8	3.625
443.0	3.512
443.2	3.803
443.4	4.034
443.6	3.757
443.8	3.572
444.0	3.530
444.2	3.574
444.4	3.755
444.6	3.802
444.8	3.798
445.0	3.830
445.2	3.670
445.4	3.774
445.6	3.838
445.8	4.006
446.0	4.149
446.2	4.108
446.4	4.027
446.6	4.240
446.8	4.280
447.0	4.323
447.2	4.205
447.4	4.114
447.6	4.249
447.8	4.321
448.0	4.238
448.2	4.433
448.4	4.443
448.6	4.668
448.8	4.806
449.0	4.905
449.2	4.816
449.4	4.631
449.6	4.288
449.8	4.468
450.0	4.593
450.2	4.812
450.4	4.907
450.6	4.697
450.8	4.556
451.0	4.802
451.2	5.104
451.4	5.173
451.6	5.298
451.8	5.340
452.0	5.364
452.2	5.175
452.4	4.991
452.6	4.580
452.8	4.682
453.0	4.978
453.2	5.224
453.4	5.419
453.6	5.710
453.8	5.672
454.0	5.593
454.2	5.608
454.4	5.473
454.6	5.487
454.8	5.729
455.0	5.953
455.2	5.906
455.4	6.095
455.6	6.164
455.8	6.114
456.0	6.102
456.2	6.328
456.4	6.491
456.6	6.696
456.8	6.874
457.0	6.809
457.2	6.787
457.4	6.807
457.6	6.932
457.8	7.142
458.0	7.345
458.2	7.688
458.4	7.975
458.6	7.903
458.8	7.991
459.0	7.903
459.2	7.907
459.4	8.235
459.6	8.386
459.8	8.270
460.0	8.430
460.2	8.347
460.4	8.672
460.6	9.215
460.8	9.329
461.0	9.398
461.2	9.472
461.4	9.506
461.6	9.866
461.8	10.54
462.0	10.56
462.2	10.30
462.4	10.33
462.6	10.27
462.8	10.39
463.0	10.74
463.2	11.06
463.4	11.27
463.6	12.09
463.8	12.22
464.0	12.51
464.2	12.68
464.4	12.94
464.6	13.12
464.8	13.49
465.0	13.53
465.2	13.87
465.4	14.00
465.6	14.29
465.8	14.54
466.0	15.41
466.2	15.88
466.4	16.45
466.6	16.36
466.8	16.79
467.0	17.10
467.2	17.97
467.4	18.23
467.6	18.85
467.8	18.63
468.0	19.17
468.2	19.72
468.4	20.50
468.6	21.32
468.8	22.42
469.0	22.87
469.2	23.24
469.4	23.81
469.6	24.28
469.8	25.23
470.0	26.19
470.2	26.96
470.4	27.45
470.6	27.62
470.8	28.58
471.0	29.80
471.2	30.75
471.4	31.98
471.6	33.09
471.8	33.77
472.0	35.05
472.2	36.21
472.4	37.55
472.6	38.26
472.8	38.38
473.0	39.24
473.2	39.83
473.4	41.17
473.6	42.94
473.8	44.17
474.0	45.32
474.2	47.23
474.4	47.71
474.6	48.92
474.8	49.83
475.0	51.04
475.2	52.92
475.4	55.18
475.6	56.47
475.8	58.96
476.0	60.14
476.2	61.75
476.4	63.31
476.6	65.90
476.8	68.31
477.0	70.70
477.2	72.31
477.4	75.05
477.6	76.50
477.8	79.34
478.0	80.72
478.2	81.94
478.4	83.90
478.6	86.92
478.8	90.16
479.0	95.25
479.2	97.87
479.4	100.3
479.6	102.2
479.8	104.8
480.0	107.7
480.2	111.4
480.4	113.1
480.6	115.6
480.8	118.9
481.0	123.3
481.2	127.5
481.4	131.3
481.6	135.3
481.8	139.1
482.0	143.1
482.2	148.1
482.4	152.7
482.6	157.6
482.8	163.1
483.0	166.4
483.2	170.3
483.4	174.7
483.6	178.8
483.8	183.0
484.0	188.3
484.2	195.2
484.4	201.3
484.6	208.5
484.8	214.2
485.0	219.9
485.2	225.0
485.4	231.3
485.6	236.3
485.8	241.3
486.0	247.4
486.2	256.4
486.4	262.9
486.6	270.3
486.8	277.4
487.0	282.9
487.2	290.1
487.4	298.9
487.6	305.3
487.8	310.4
488.0	317.2
488.2	326.6
488.4	336.0
488.6	347.7
488.8	357.9
489.0	364.1
489.2	371.8
489.4	380.5
489.6	390.8
489.8	403.4
490.0	416.6
490.2	426.7
490.4	435.3
490.6	444.3
490.8	456.3
491.0	469.4
491.2	483.3
491.4	495.4
491.6	506.1
491.8	516.8
492.0	528.9
492.2	541.0
492.4	553.1
492.6	565.3
492.8	577.2
493.0	589.0
493.2	604.2
493.4	620.7
493.6	635.2
493.8	648.2
494.0	661.2
494.2	673.9
494.4	689.1
494.6	706.6
494.8	723.8
495.0	740.6
495.2	760.5
495.4	779.1
495.6	793.8
495.8	809.9
496.0	825.7
496.2	844.7
496.4	862.9
496.6	878.8
496.8	893.4
497.0	909.6
497.2	929.4
497.4	951.4
497.6	970.4
497.8	991.6
498.0	1011
498.2	1027
498.4	1045
498.6	1066
498.8	1088
499.0	1112
499.2	1133
499.4	1157
499.6	1178
499.8	1206
500.0	1233
500.2	1250
500.4	1265
500.6	1284
500.8	1304
501.0	1327
501.2	1359
501.4	1383
501.6	1409
501.8	1434
502.0	1457
502.2	1478
502.4	1507
502.6	1532
502.8	1562
503.0	1589
503.2	1616
503.4	1640
503.6	1667
503.8	1690
504.0	1717
504.2	1746
504.4	1775
504.6	1802
504.8	1837
505.0	1866
505.2	1896
505.4	1931
505.6	1961
505.8	1991
506.0	2017
506.2	2044
506.4	2072
506.6	2102
506.8	2130
507.0	2166
507.2	2196
507.4	2230
507.6	2265
507.8	2294
508.0	2317
508.2	2345
508.4	2381
508.6	2413
508.8	2448
509.0	2480
509.2	2514
509.4	2539
509.6	2580
509.8	2610
510.0	2642
510.2	2681
510.4	2720
510.6	2749
510.8	2784
511.0	2814
511.2	2845
511.4	2885
511.6	2923
511.8	2963
512.0	2996
512.2	3030
512.4	3056
512.6	3092
512.8	3124
513.0	3157
513.2	3188
513.4	3224
513.6	3259
513.8	3301
514.0	3339
514.2	3378
514.4	3412
514.6	3450
514.8	3482
515.0	3512
515.2	3543
515.4	3581
515.6	3619
515.8	3662
516.0	3699
516.2	3732
516.4	3763
516.6	3804
516.8	3841
517.0	3879
517.2	3907
517.4	3939
517.6	3971
517.8	4014
518.0	4050
518.2	4079
518.4	4111
518.6	4148
518.8	4184
519.0	4228
519.2	4262
519.4	4291
519.6	4333
519.8	4367
520.0	4398
520.2	4439
520.4	4476
520.6	4518
520.8	4564
521.0	4603
521.2	4635
521.4	4667
521.6	4698
521.8	4720
522.0	4746
522.2	4776
522.4	4808
522.6	4850
522.8	4891
523.0	4916
523.2	4947
523.4	4974
523.6	5008
523.8	5052
524.0	5087
524.2	5114
524.4	5142
524.6	5172
524.8	5213
525.0	5255
525.2	5298
525.4	5322
525.6	5342
525.8	5370
526.0	5394
526.2	5428
526.4	5467
526.6	5497
526.8	5520
527.0	5555
527.2	5584
527.4	5618
527.6	5647
527.8	5669
528.0	5689
528.2	5713
528.4	5742
528.6	5772
528.8	5796
529.0	5821
529.2	5847
529.4	5876
529.6	5910
529.8	5927
530.0	5945
530.2	5979
530.4	6003
530.6	6037
530.8	6067
531.0	6084
531.2	6110
531.4	6138
531.6	6164
531.8	6190
532.0	6216
532.2	6237
532.4	6259
532.6	6283
532.8	6301
533.0	6317
533.2	6347
533.4	6362
533.6	6380
533.8	6407
534.0	6425
534.2	6439
534.4	6471
534.6	6488
534.8	6496
535.0	6523
535.2	6551
535.4	6577
535.6	6604
535.8	6626
536.0	6630
536.2	6650
536.4	6669
536.6	6683
536.8	6690
537.0	6702
537.2	6714
537.4	6725
537.6	6742
537.8	6758
538.0	6782
538.2	6790
538.4	6799
538.6	6813
538.8	6827
539.0	6851
539.2	6881
539.4	6881
539.6	6878
539.8	6885
540.0	6884
540.2	6897
540.4	6917
540.6	6923
540.8	6934
541.0	6944
541.2	6947
541.4	6959
541.6	6977
541.8	6988
542.0	7005
542.2	7018
542.4	7031
542.6	7047
542.8	7052
543.0	7058
543.2	7065
543.4	7069
543.6	7075
543.8	7083
544.0	7075
544.2	7086
544.4	7094
544.6	7096
544.8	7100
545.0	7105
545.2	7105
545.4	7121
545.6	7122
545.8	7118
546.0	7119
546.2	7127
546.4	7143
546.6	7154
546.8	7154
547.0	7138
547.2	7131
547.4	7130
547.6	7138
547.8	7139
548.0	7144
548.2	7136
548.4	7144
548.6	7140
548.8	7144
549.0	7143
549.2	7144
549.4	7133
549.6	7131
549.8	7123
550.0	7125
550.2	7125
550.4	7131
550.6	7128
550.8	7134
551.0	7122
551.2	7121
551.4	7120
551.6	7124
551.8	7123
552.0	7132
552.2	7127
552.4	7128
552.6	7113
552.8	7096
553.0	7078
553.2	7078
553.4	7081
553.6	7075
553.8	7058
554.0	7042
554.2	7037
554.4	7042
554.6	7039
554.8	7028
555.0	7022
555.2	7014
555.4	7009
555.6	7001
555.8	6994
556.0	6983
556.2	6974
556.4	6970
556.6	6957
556.8	6951
557.0	6958
557.2	6954
557.4	6938
557.6	6925
557.8	6903
558.0	6885
558.2	6877
558.4	6872
558.6	6867
558.8	6866
559.0	6868
559.2	6854
559.4	6839
559.6	6818
559.8	6809
560.0	6792
560.2	6779
560.4	6764
560.6	6750
560.8	6747
561.0	6741
561.2	6732
561.4	6714
561.6	6703
561.8	6687
562.0	6677
562.2	6663
562.4	6651
562.6	6625
562.8	6611
563.0	6603
563.2	6599
563.4	6601
563.6	6592
563.8	6570
564.0	6547
564.2	6532
564.4	6510
564.6	6500
564.8	6481
565.0	6470
565.2	6456
565.4	6447
565.6	6429
565.8	6420
566.0	6410
566.2	6402
566.4	6391
566.6	6379
566.8	6351
567.0	6318
567.2	6296
567.4	6290
567.6	6285
567.8	6281
568.0	6261
568.2	6241
568.4	6220
568.6	6212
568.8	6202
569.0	6187
569.2	6169
569.4	6155
569.6	6133
569.8	6116
570.0	6107
570.2	6085
570.4	6067
570.6	6049
570.8	6034
571.0	6023
571.2	6002
571.4	5978
571.6	5956
571.8	5938
572.0	5932
572.2	5921
572.4	5897
572.6	5880
572.8	5851
573.0	5834
573.2	5819
573.4	5804
573.6	5802
573.8	5792
574.0	5769
574.2	5756
574.4	5736
574.6	5720
574.8	5709
575.0	5698
575.2	5679
575.4	5654
575.6	5627
575.8	5608
576.0	5591
576.2	5587
576.4	5567
576.6	5549
576.8	5526
577.0	5507
577.2	5488
577.4	5470
577.6	5455
577.8	5445
578.0	5425
578.2	5412
578.4	5389
578.6	5375
578.8	5371
579.0	5343
579.2	5321
579.4	5306
579.6	5283
579.8	5271
580.0	5256
580.2	5228
580.4	5216
580.6	5205
580.8	5190
581.0	5169
581.2	5148
581.4	5134
581.6	5118
581.8	5105
582.0	5089
582.2	5061
582.4	5043
582.6	5027
582.8	5001
583.0	4986
583.2	4968
583.4	4954
583.6	4936
583.8	4912
584.0	4889
584.2	4875
584.4	4861
584.6	4857
584.8	4836
585.0	4817
585.2	4801
585.4	4790
585.6	4773
585.8	4758
586.0	4734
586.2	4716
586.4	4701
586.6	4684
586.8	4660
587.0	4644
587.2	4617
587.4	4601
587.6	4581
587.8	4560
588.0	4535
588.2	4523
588.4	4507
588.6	4504
588.8	4496
589.0	4480
589.2	4444
589.4	4428
589.6	4411
589.8	4409
590.0	4404
590.2	4384
590.4	4352
590.6	4330
590.8	4303
591.0	4295
591.2	4290
591.4	4283
591.6	4273
591.8	4253
592.0	4222
592.2	4198
592.4	4173
592.6	4158
592.8	4147
593.0	4138
593.2	4126
593.4	4107
593.6	4081
593.8	4060
594.0	4041
594.2	4031
594.4	4024
594.6	4010
594.8	3992
595.0	3973
595.2	3951
595.4	3932
595.6	3916
595.8	3905
596.0	3895
596.2	3890
596.4	3866
596.6	3848
596.8	3825
597.0	3810
597.2	3801
597.4	3789
597.6	3765
597.8	3747
598.0	3726
598.2	3715
598.4	3705
598.6	3690
598.8	3676
599.0	3656
599.2	3636
599.4	3617
599.6	3606
599.8	3599
600.0	3584
600.2	3560
600.4	3543
600.6	3519
600.8	3505
601.0	3500
601.2	3489
601.4	3468
601.6	3453
601.8	3429
602.0	3408
602.2	3396
602.4	3382
602.6	3358
602.8	3349
603.0	3332
603.2	3320
603.4	3308
603.6	3290
603.8	3274
604.0	3267
604.2	3254
604.4	3237
604.6	3218
604.8	3206
605.0	3194
605.2	3178
605.4	3167
605.6	3146
605.8	3126
606.0	3115
606.2	3101
606.4	3092
606.6	3086
606.8	3071
607.0	3053
607.2	3038
607.4	3020
607.6	3009
607.8	3001
608.0	2984
608.2	2967
608.4	2946
608.6	2922
608.8	2904
609.0	2900
609.2	2890
609.4	2880
609.6	2866
609.8	2850
610.0	2835
610.2	2832
610.4	2825
610.6	2810
610.8	2791
611.0	2772
611.2	2753
611.4	2743
611.6	2737
611.8	2725
612.0	2707
612.2	2689
612.4	2671
612.6	2655
612.8	2641
613.0	2624
613.2	2610
613.4	2602
613.6	2593
613.8	2582
614.0	2566
614.2	2553
614.4	2542
614.6	2531
614.8	2521
615.0	2513
615.2	2500
615.4	2484
615.6	2465
615.8	2451
616.0	2434
616.2	2419
616.4	2403
616.6	2391
616.8	2387
617.0	2386
617.2	2370
617.4	2358
617.6	2340
617.8	2333
618.0	2327
618.2	2317
618.4	2302
618.6	2288
618.8	2270
619.0	2258
619.2	2242
619.4	2226
619.6	2213
619.8	2202
620.0	2189
620.2	2185
620.4	2176
620.6	2165
620.8	2152
621.0	2135
621.2	2121
621.4	2114
621.6	2106
621.8	2093
622.0	2081
622.2	2068
622.4	2060
622.6	2053
622.8	2048
623.0	2032
623.2	2016
623.4	2007
623.6	1994
623.8	1984
624.0	1972
624.2	1959
624.4	1948
624.6	1940
624.8	1924
625.0	1909
625.2	1893
625.4	1882
625.6	1873
625.8	1869
626.0	1863
626.2	1854
626.4	1843
626.6	1827
626.8	1811
627.0	1803
627.2	1796
627.4	1790
627.6	1781
627.8	1768
628.0	1754
628.2	1737
628.4	1728
628.6	1718
628.8	1707
629.0	1700
629.2	1690
629.4	1681
629.6	1676
629.8	1665
630.0	1653
630.2	1643
630.4	1632
630.6	1624
630.8	1618
631.0	1608
631.2	1602
631.4	1597
631.6	1591
631.8	1577
632.0	1570
632.2	1556
632.4	1547
632.6	1538
632.8	1528
633.0	1509
633.2	1503
633.4	1495
633.6	1488
633.8	1481
634.0	1474
634.2	1463
634.4	1459
634.6	1455
634.8	1447
635.0	1433
635.2	1418
635.4	1410
635.6	1403
635.8	1402
636.0	1394
636.2	1381
636.4	1371
636.6	1363
636.8	1351
637.0	1345
637.2	1337
637.4	1330
637.6	1321
637.8	1312
638.0	1301
638.2	1293
638.4	1290
638.6	1284
638.8	1276
639.0	1268
639.2	1258
639.4	1252
639.6	1247
639.8	1240
640.0	1231
640.2	1224
640.4	1214
640.6	1208
640.8	1201
641.0	1194
641.2	1183
641.4	1177
641.6	1171
641.8	1167
642.0	1161
642.2	1152
642.4	1142
642.6	1133
642.8	1129
643.0	1122
643.2	1111
643.4	1104
643.6	1096
643.8	1087
644.0	1084
644.2	1080
644.4	1074
644.6	1071
644.8	1065
645.0	1055
645.2	1050
645.4	1043
645.6	1035
645.8	1028
646.0	1021
646.2	1015
646.4	1011
646.6	1005
646.8	996.6
647.0	990.9
647.2	983.7
647.4	977.1
647.6	970.4
647.8	965.9
648.0	962.9
648.2	959.3
648.4	950.6
648.6	940.7
648.8	931.9
649.0	930.4
649.2	929.2
649.4	926.7
649.6	917.3
649.8	909.3
650.0	899.2
650.2	894.8
650.4	888.8
650.6	883.8
650.8	877.8
651.0	875.4
651.2	870.1
651.4	862.4
651.6	855.8
651.8	848.5
652.0	842.5
652.2	838.7
652.4	836.5
652.6	830.6
652.8	826.4
653.0	822.6
653.2	815.5
653.4	808.4
653.6	804.1
653.8	795.7
654.0	791.1
654.2	786.7
654.4	779.6
654.6	774.8
654.8	771.7
655.0	766.2
655.2	765.3
655.4	760.3
655.6	752.7
655.8	749.9
656.0	745.1
656.2	742.9
656.4	738.1
656.6	734.4
656.8	726.3
657.0	721.8
657.2	712.8
657.4	711.0
657.6	706.5
657.8	705.0
658.0	702.3
658.2	696.8
658.4	690.1
658.6	683.2
658.8	680.0
659.0	673.5
659.2	671.2
659.4	667.1
659.6	661.9
659.8	655.5
660.0	652.4
660.2	646.1
660.4	643.3
660.6	640.1
660.8	637.1
661.0	633.8
661.2	629.4
661.4	623.7
661.6	620.2
661.8	613.4
662.0	611.9
662.2	610.5
662.4	609.6
662.6	604.9
662.8	601.3
663.0	591.0
663.2	584.8
663.4	582.0
663.6	581.9
663.8	579.0
664.0	576.9
664.2	571.5
664.4	564.6
664.6	561.9
664.8	560.3
665.0	555.5
665.2	552.8
665.4	552.3
665.6	547.7
665.8	543.5
666.0	537.9
666.2	531.4
666.4	526.1
666.6	525.4
666.8	522.9
667.0	517.6
667.2	512.2
667.4	507.0
667.6	504.2
667.8	503.5
668.0	501.9
668.2	499.7
668.4	496.4
668.6	492.0
668.8	489.7
669.0	484.5
669.2	481.8
669.4	479.9
669.6	477.6
669.8	472.7
670.0	467.8
670.2	464.0
670.4	461.1
670.6	460.2
670.8	456.9
671.0	450.9
671.2	445.1
671.4	443.3
671.6	440.6
671.8	440.8
672.0	440.3
672.2	436.7
672.4	432.4
672.6	428.7
672.8	423.9
673.0	422.1
673.2	421.3
673.4	420.0
673.6	417.3
673.8	414.6
674.0	409.8
674.2	405.9
674.4	403.0
674.6	399.7
674.8	395.3
675.0	393.5
675.2	391.6
675.4	390.8
675.6	389.9
675.8	387.3
676.0	383.0
676.2	380.8
676.4	378.6
676.6	376.3
676.8	374.0
677.0	371.6
677.2	367.7
677.4	363.5
677.6	359.1
677.8	356.7
678.0	355.6
678.2	353.7
678.4	350.6
678.6	347.2
678.8	346.8
679.0	348.5
679.2	347.9
679.4	344.9
679.6	336.8
679.8	331.6
680.0	327.6
680.2	326.2
680.4	326.7
680.6	327.6
680.8	326.0
681.0	327.1
681.2	322.7
681.4	319.7
681.6	316.4
681.8	313.6
682.0	310.5
682.2	308.8
682.4	305.6
682.6	304.1
682.8	299.5
683.0	297.0
683.2	295.7
683.4	294.7
683.6	293.1
683.8	290.9
684.0	287.0
684.2	285.3
684.4	285.2
684.6	284.2
684.8	282.2
685.0	278.7
685.2	275.9
685.4	275.4
685.6	274.8
685.8	272.5
686.0	268.7
686.2	264.6
686.4	261.8
686.6	263.4
686.8	265.1
687.0	264.8
687.2	262.3
687.4	261.2
687.6	258.9
687.8	258.0
688.0	256.2
688.2	254.3
688.4	251.3
688.6	249.5
688.8	247.1
689.0	245.0
689.2	241.4
689.4	240.3
689.6	239.0
689.8	237.5
690.0	236.6
690.2	235.1
690.4	232.0
690.6	230.3
690.8	229.1
691.0	227.7
691.2	227.9
691.4	227.5
691.6	227.2
691.8	225.3
692.0	224.2
692.2	222.0
692.4	219.7
692.6	216.4
692.8	215.3
693.0	213.0
693.2	211.8
693.4	209.9
693.6	208.8
693.8	207.0
694.0	207.3
694.2	205.9
694.4	204.7
694.6	204.4
694.8	202.8
695.0	201.6
695.2	199.0
695.4	196.6
695.6	194.4
695.8	193.8
696.0	192.9
696.2	191.9
696.4	189.9
696.6	189.9
696.8	188.0
697.0	188.0
697.2	187.6
697.4	185.6
697.6	185.0
697.8	185.1
698.0	184.1
698.2	183.2
698.4	180.3
698.6	177.9
698.8	176.5
699.0	175.9
699.2	175.3
699.4	174.6
699.6	173.5
699.8	173.7
700.0	172.3
700.2	172.3
700.4	172.0
700.6	169.9
700.8	168.7
701.0	168.5
701.2	166.5
701.4	166.4
701.6	165.6
701.8	163.4
702.0	161.7
702.2	160.6
702.4	159.3
702.6	158.6
702.8	157.6
703.0	157.0
703.2	155.7
703.4	155.3
703.6	154.2
703.8	153.8
704.0	152.6
704.2	151.4
704.4	149.7
704.6	148.6
704.8	147.1
705.0	146.9
705.2	146.3
705.4	146.5
705.6	146.3
705.8	146.1
706.0	144.6
706.2	143.0
706.4	141.0
706.6	140.1
706.8	137.1
707.0	138.4
707.2	139.4
707.4	138.9
707.6	138.4
707.8	137.4
708.0	134.4
708.2	134.9
708.4	133.9
708.6	131.9
708.8	131.3
709.0	131.5
709.2	132.1
709.4	132.5
709.6	130.6
709.8	129.0
710.0	127.1
710.2	124.2
710.4	123.6
710.6	124.1
710.8	124.7
711.0	124.4
711.2	124.2
711.4	122.8
711.6	121.8
711.8	121.3
712.0	118.7
712.2	115.8
712.4	115.0
712.6	114.7
712.8	114.9
713.0	116.0
713.2	114.2
713.4	113.5
713.6	112.2
713.8	112.5
714.0	112.8
714.2	112.6
714.4	110.1
714.6	108.4
714.8	107.6
715.0	109.1
715.2	108.6
715.4	108.9
715.6	107.7
715.8	106.5
716.0	104.4
716.2	102.2
716.4	99.98
716.6	100.3
716.8	100.6
717.0	102.0
717.2	100.7
717.4	99.85
717.6	98.47
717.8	99.16
718.0	99.22
718.2	100.2
718.4	97.60
718.6	96.79
718.8	95.57
719.0	95.66
719.2	94.67
719.4	93.50
719.6	91.49
719.8	91.87
720.0	90.80
720.2	89.57
720.4	89.03
720.6	87.98
720.8	88.17
721.0	88.76
721.2	87.17
721.4	86.17
721.6	86.35
721.8	85.16
722.0	85.47
722.2	85.85
722.4	84.95
722.6	83.61
722.8	83.24
723.0	82.34
723.2	81.93
723.4	81.61
723.6	80.31
723.8	79.36
724.0	79.10
724.2	78.13
724.4	75.76
724.6	74.39
724.8	73.76
725.0	74.53
725.2	74.24
725.4	73.72
725.6	72.93
725.8	72.85
726.0	72.94
726.2	72.57
726.4	71.25
726.6	70.48
726.8	70.93
727.0	71.59
727.2	71.77
727.4	70.62
727.6	69.72
727.8	69.03
728.0	68.59
728.2	68.00
728.4	66.62
728.6	64.78
728.8	63.84
729.0	63.54
729.2	64.04
729.4	64.20
729.6	63.62
729.8	63.03
730.0	61.92
730.2	61.29
730.4	61.07
730.6	60.37
730.8	59.79
731.0	59.97
731.2	59.46
731.4	59.29
731.6	59.13
731.8	59.86
732.0	59.75
732.2	60.09
732.4	58.97
732.6	58.31
732.8	56.76
733.0	55.61
733.2	53.89
733.4	54.36
733.6	53.96
733.8	54.43
734.0	54.11
734.2	53.58
734.4	52.72
734.6	52.98
734.8	52.83
735.0	53.07
735.2	52.91
735.4	52.70
735.6	52.23
735.8	51.19
736.0	51.12
736.2	51.02
736.4	50.48
736.6	49.87
736.8	49.47
737.0	48.98
737.2	49.05
737.4	49.06
737.6	48.79
737.8	47.94
738.0	46.94
738.2	45.88
738.4	45.29
738.6	45.10
738.8	45.53
739.0	45.91
739.2	46.57
739.4	46.18
739.6	45.41
739.8	44.53
740.0	44.22
740.2	43.15
740.4	42.85
740.6	42.39
740.8	42.17
741.0	42.24
741.2	42.52
741.4	42.39
741.6	41.88
741.8	41.30
742.0	40.66
742.2	40.46
742.4	40.28
742.6	40.04
742.8	40.10
743.0	39.88
743.2	39.77
743.4	38.95
743.6	38.51
743.8	38.67
744.0	39.12
744.2	39.13
744.4	39.41
744.6	38.62
744.8	38.28
745.0	38.36
745.2	37.70
745.4	36.78
745.6	35.89
745.8	36.09
746.0	36.02
746.2	36.59
746.4	36.55
746.6	35.78
746.8	34.72
747.0	34.43
747.2	33.72
747.4	34.06
747.6	33.98
747.8	33.43
748.0	33.39
748.2	33.43
748.4	32.97
748.6	33.30
748.8	32.73
749.0	32.09
749.2	31.59
749.4	31.49
749.6	30.99
749.8	30.83
750.0	30.90
750.2	31.08
750.4	30.79
750.6	30.45
750.8	29.93
751.0	29.22
751.2	29.60
751.4	29.56
751.6	29.81
751.8	29.34
752.0	29.04
752.2	28.74
752.4	28.65
752.6	28.45
752.8	28.56
753.0	28.28
753.2	28.00
753.4	27.87
753.6	27.36
753.8	27.36
754.0	27.02
754.2	26.72
754.4	26.19
754.6	25.84
754.8	25.72
755.0	26.13
755.2	26.60
755.4	26.75
755.6	26.26
755.8	26.13
756.0	25.84
756.2	25.41
756.4	25.51
756.6	25.02
756.8	24.04
757.0	23.92
757.2	23.75
757.4	24.01
757.6	24.08
757.8	24.16
758.0	24.21
758.2	24.56
758.4	24.36
758.6	23.91
758.8	23.02
759.0	22.45
759.2	22.44
759.4	22.80
759.6	22.90
759.8	23.11
760.0	22.84
760.2	22.37
760.4	21.91
760.6	21.98
760.8	21.40
761.0	21.36
761.2	21.18
761.4	20.94
761.6	20.21
761.8	20.12
762.0	19.98
762.2	20.03
762.4	20.86
762.6	21.06
762.8	20.69
763.0	20.32
763.2	20.52
763.4	20.60
763.6	20.71
763.8	20.39
764.0	19.58
764.2	18.97
764.4	18.68
764.6	18.73
764.8	18.87
765.0	18.75
765.2	18.63
765.4	18.53
765.6	18.26
765.8	18.25
766.0	18.64
766.2	18.41
766.4	18.29
766.6	17.65
766.8	17.18
767.0	16.81
767.2	17.23
767.4	17.85
767.6	17.82
767.8	17.49
768.0	17.45
768.2	17.29
768.4	17.56
768.6	17.95
768.8	17.54
769.0	17.03
769.2	16.97
769.4	17.15
769.6	16.85
769.8	16.59
770.0	16.14
770.2	15.70
770.4	15.65
770.6	16.19
770.8	16.00
771.0	15.84
771.2	15.32
771.4	14.95
771.6	15.07
771.8	15.57
772.0	15.40
772.2	14.79
772.4	14.22
772.6	14.21
772.8	14.38
773.0	14.81
773.2	14.90
773.4	14.73
773.6	14.71
773.8	14.53
774.0	14.09
774.2	14.05
774.4	13.69
774.6	13.96
774.8	14.20
775.0	14.00
775.2	13.95
775.4	13.71
775.6	13.21
775.8	12.97
776.0	12.93
776.2	12.80
776.4	13.30
776.6	13.15
776.8	13.20
777.0	13.19
777.2	13.33
777.4	13.27
777.6	13.20
777.8	12.77
778.0	12.63
778.2	12.96
778.4	12.93
778.6	12.50
778.8	12.01
779.0	11.89
779.2	11.88
779.4	12.17
779.6	12.17
779.8	12.09
780.0	12.21
780.2	12.50
780.4	12.40
780.6	12.36
780.8	12.23
781.0	12.02
781.2	11.89
781.4	11.94
781.6	11.56
781.8	11.37
782.0	11.09
782.2	10.90
782.4	11.36
782.6	11.80
782.8	11.85
783.0	11.61
783.2	11.68
783.4	11.44
783.6	11.39
783.8	11.06
784.0	10.73
784.2	10.45
784.4	10.71
784.6	10.92
784.8	11.07
785.0	11.36
785.2	11.40
785.4	11.64
785.6	11.41
785.8	11.45
786.0	11.35
786.2	11.20
786.4	11.00
786.6	11.30
786.8	11.44
787.0	11.67
787.2	11.50
787.4	11.21
787.6	10.65
787.8	10.68
788.0	10.99
788.2	11.37
788.4	11.42
788.6	11.27
788.8	10.66
789.0	10.45
789.2	10.45
789.4	10.84
789.6	10.71
789.8	10.80
790.0	10.87
790.2	10.81
790.4	10.71
790.6	10.81
790.8	10.42
791.0	10.75
791.2	11.11
791.4	11.26
791.6	10.98
791.8	10.78
792.0	10.54
792.2	10.27
792.4	10.18
792.6	10.64
792.8	10.80
793.0	10.84
793.2	11.16
793.4	11.02
793.6	10.90
793.8	11.21
794.0	11.32
794.2	10.93
794.4	10.97
794.6	10.70
794.8	10.52
795.0	10.50
795.2	10.32
795.4	10.21
795.6	10.25
795.8	10.50
796.0	10.79
796.2	10.92
796.4	10.93
796.6	10.98
796.8	10.57
797.0	10.42
797.2	10.36
797.4	10.44
797.6	10.88
797.8	11.16
798.0	11.08
798.2	10.93
798.4	10.99
798.6	11.02
798.8	10.93
799.0	10.82
799.2	10.81
799.4	10.47
799.6	10.27
799.8	10.16
800.0	10.19

