Sample:	'20211010A(EM)
File name:	G-NI 11 S YUAN.FDS
Run date:	'20:02:46, 06/19/2023
Operator:	Administrator
Comment:	'

Instrument
Model:	F-4700 FL Spectrophotometer
Serial number:	2019-001
ROM Version:	5J24010 00

Instrument parameters
Measurement type:	Wavelength scan
Scan mode:	Emission
Data mode:	Fluorescence
EX WL:	400.0 nm
EM  Start WL:	420.0 nm
EM  End WL:	800.0 nm
Scan speed:	1200 nm/min
Delay:	0.0 s
EX Slit:	10.0 nm
EM Slit:	10.0 nm
PMT Voltage:	500 V
Response:	0.002 s
Corrected spectra:	Off
Shutter control:	On

Processing performed
Savitsky-Golay smoothed
Smoothing order:	3
Number of points:	7
Number of times:	1

Peak integration
Integration method:	Rectangular
Sensitivity:	1
Threshold:	1.000

Peaks
No.	Start(nm)	Apex(nm)	End(nm)	Height(Data)	Valley(nm)	Valley(Data)
1	420.0	548.4	549.8	5503	549.8	5480
2	549.8	550.6	758.4	5504	758.4	17.88
3	758.4	759.0	771.8	19.67	771.8	11.26
4	771.8	772.8	784.0	12.80	784.0	9.105
5	784.0	785.2	786.0	10.14	786.0	8.543
6	786.0	787.4	789.0	9.728	789.0	8.527
7	789.0	789.8	791.4	10.04	791.4	8.797

Data points
nm	Data
420.0	2.063
420.2	2.181
420.4	2.245
420.6	2.256
420.8	2.189
421.0	2.125
421.2	2.091
421.4	2.032
421.6	2.174
421.8	2.323
422.0	2.471
422.2	2.498
422.4	2.503
422.6	2.509
422.8	2.445
423.0	2.398
423.2	2.339
423.4	2.240
423.6	2.234
423.8	2.297
424.0	2.134
424.2	2.115
424.4	2.107
424.6	2.215
424.8	2.381
425.0	2.439
425.2	2.416
425.4	2.309
425.6	2.244
425.8	2.244
426.0	2.326
426.2	2.266
426.4	2.220
426.6	2.096
426.8	2.097
427.0	2.077
427.2	2.231
427.4	2.219
427.6	2.232
427.8	2.262
428.0	2.342
428.2	2.335
428.4	2.401
428.6	2.362
428.8	2.362
429.0	2.355
429.2	2.186
429.4	2.075
429.6	2.029
429.8	2.040
430.0	2.320
430.2	2.592
430.4	2.602
430.6	2.617
430.8	2.572
431.0	2.448
431.2	2.537
431.4	2.599
431.6	2.531
431.8	2.432
432.0	2.342
432.2	2.297
432.4	2.348
432.6	2.323
432.8	2.170
433.0	2.133
433.2	2.087
433.4	2.299
433.6	2.289
433.8	2.302
434.0	2.358
434.2	2.508
434.4	2.683
434.6	2.830
434.8	2.643
435.0	2.510
435.2	2.565
435.4	2.499
435.6	2.454
435.8	2.398
436.0	2.336
436.2	2.214
436.4	2.229
436.6	2.385
436.8	2.458
437.0	2.532
437.2	2.668
437.4	2.540
437.6	2.345
437.8	2.329
438.0	2.370
438.2	2.378
438.4	2.491
438.6	2.487
438.8	2.555
439.0	2.353
439.2	2.466
439.4	2.537
439.6	2.585
439.8	2.495
440.0	2.453
440.2	2.257
440.4	2.463
440.6	2.695
440.8	3.020
441.0	2.885
441.2	2.580
441.4	2.519
441.6	2.635
441.8	2.677
442.0	2.817
442.2	2.639
442.4	2.319
442.6	2.413
442.8	2.738
443.0	2.843
443.2	2.888
443.4	2.828
443.6	2.697
443.8	2.581
444.0	2.628
444.2	2.536
444.4	2.483
444.6	2.440
444.8	2.491
445.0	2.558
445.2	2.639
445.4	2.699
445.6	2.772
445.8	2.802
446.0	2.840
446.2	2.987
446.4	3.084
446.6	3.060
446.8	3.048
447.0	3.022
447.2	3.030
447.4	3.029
447.6	2.898
447.8	2.788
448.0	2.765
448.2	2.793
448.4	2.974
448.6	3.258
448.8	3.308
449.0	3.316
449.2	3.144
449.4	2.887
449.6	2.771
449.8	3.049
450.0	3.218
450.2	3.438
450.4	3.548
450.6	3.518
450.8	3.449
451.0	3.502
451.2	3.354
451.4	3.183
451.6	3.104
451.8	3.057
452.0	3.038
452.2	3.216
452.4	3.611
452.6	3.631
452.8	3.712
453.0	3.644
453.2	3.303
453.4	3.261
453.6	3.359
453.8	3.430
454.0	3.558
454.2	3.582
454.4	3.581
454.6	3.860
454.8	3.921
455.0	4.077
455.2	4.101
455.4	3.976
455.6	3.950
455.8	4.044
456.0	4.200
456.2	4.188
456.4	4.239
456.6	4.312
456.8	4.279
457.0	4.373
457.2	4.363
457.4	4.418
457.6	4.399
457.8	4.516
458.0	4.520
458.2	4.563
458.4	4.502
458.6	4.700
458.8	4.787
459.0	4.949
459.2	5.122
459.4	5.220
459.6	5.246
459.8	5.361
460.0	5.404
460.2	5.313
460.4	5.290
460.6	5.197
460.8	5.408
461.0	5.917
461.2	6.415
461.4	6.699
461.6	6.549
461.8	6.409
462.0	6.483
462.2	6.555
462.4	6.688
462.6	6.770
462.8	6.787
463.0	7.271
463.2	7.723
463.4	8.089
463.6	7.995
463.8	7.908
464.0	7.908
464.2	8.320
464.4	8.841
464.6	9.145
464.8	9.083
465.0	9.208
465.2	8.831
465.4	9.064
465.6	9.478
465.8	9.772
466.0	10.14
466.2	10.81
466.4	10.79
466.6	11.05
466.8	11.19
467.0	11.50
467.2	11.68
467.4	12.09
467.6	12.07
467.8	12.31
468.0	12.62
468.2	13.35
468.4	13.97
468.6	14.29
468.8	14.34
469.0	14.79
469.2	15.02
469.4	15.53
469.6	15.96
469.8	16.19
470.0	16.98
470.2	17.87
470.4	18.75
470.6	19.24
470.8	19.63
471.0	20.05
471.2	20.63
471.4	21.02
471.6	21.91
471.8	22.55
472.0	22.95
472.2	23.10
472.4	23.56
472.6	23.93
472.8	25.59
473.0	26.74
473.2	27.15
473.4	28.12
473.6	29.33
473.8	30.44
474.0	31.90
474.2	32.38
474.4	32.37
474.6	33.92
474.8	34.51
475.0	35.80
475.2	36.95
475.4	38.89
475.6	40.06
475.8	41.96
476.0	42.65
476.2	43.53
476.4	44.60
476.6	46.11
476.8	46.29
477.0	47.64
477.2	48.62
477.4	50.21
477.6	52.35
477.8	53.56
478.0	55.34
478.2	58.32
478.4	59.66
478.6	62.16
478.8	64.19
479.0	65.21
479.2	66.49
479.4	67.72
479.6	68.55
479.8	70.87
480.0	74.59
480.2	78.30
480.4	80.80
480.6	84.21
480.8	86.21
481.0	88.20
481.2	90.23
481.4	93.18
481.6	94.74
481.8	98.21
482.0	102.1
482.2	105.7
482.4	108.7
482.6	112.7
482.8	114.1
483.0	116.4
483.2	119.8
483.4	121.5
483.6	124.9
483.8	129.8
484.0	132.6
484.2	137.8
484.4	141.5
484.6	145.7
484.8	151.2
485.0	156.6
485.2	159.7
485.4	164.4
485.6	168.2
485.8	173.1
486.0	178.2
486.2	183.0
486.4	187.9
486.6	194.4
486.8	199.6
487.0	204.3
487.2	209.4
487.4	216.2
487.6	221.7
487.8	228.6
488.0	232.4
488.2	238.4
488.4	243.8
488.6	250.7
488.8	256.2
489.0	261.7
489.2	266.4
489.4	273.9
489.6	279.9
489.8	289.5
490.0	298.6
490.2	307.2
490.4	315.8
490.6	325.2
490.8	332.8
491.0	340.0
491.2	345.9
491.4	352.2
491.6	360.3
491.8	371.3
492.0	380.9
492.2	392.1
492.4	402.8
492.6	411.4
492.8	420.0
493.0	430.5
493.2	441.0
493.4	454.5
493.6	464.3
493.8	473.9
494.0	481.7
494.2	492.6
494.4	502.7
494.6	512.1
494.8	522.4
495.0	535.9
495.2	550.7
495.4	567.6
495.6	580.1
495.8	590.1
496.0	602.3
496.2	616.0
496.4	629.7
496.6	642.2
496.8	654.4
497.0	666.9
497.2	680.8
497.4	693.3
497.6	706.2
497.8	718.4
498.0	734.6
498.2	752.1
498.4	767.4
498.6	778.5
498.8	791.7
499.0	805.6
499.2	823.6
499.4	842.0
499.6	859.5
499.8	877.1
500.0	896.7
500.2	916.4
500.4	934.8
500.6	951.6
500.8	966.3
501.0	982.3
501.2	997.7
501.4	1014
501.6	1031
501.8	1049
502.0	1069
502.2	1089
502.4	1106
502.6	1125
502.8	1150
503.0	1172
503.2	1192
503.4	1211
503.6	1225
503.8	1243
504.0	1268
504.2	1294
504.4	1316
504.6	1335
504.8	1354
505.0	1371
505.2	1395
505.4	1422
505.6	1443
505.8	1466
506.0	1491
506.2	1512
506.4	1531
506.6	1552
506.8	1574
507.0	1601
507.2	1622
507.4	1645
507.6	1664
507.8	1690
508.0	1716
508.2	1745
508.4	1766
508.6	1788
508.8	1810
509.0	1836
509.2	1862
509.4	1895
509.6	1924
509.8	1951
510.0	1972
510.2	1996
510.4	2017
510.6	2043
510.8	2067
511.0	2092
511.2	2114
511.4	2140
511.6	2164
511.8	2190
512.0	2215
512.2	2245
512.4	2272
512.6	2299
512.8	2327
513.0	2354
513.2	2376
513.4	2403
513.6	2421
513.8	2445
514.0	2479
514.2	2510
514.4	2538
514.6	2565
514.8	2587
515.0	2615
515.2	2652
515.4	2679
515.6	2708
515.8	2729
516.0	2752
516.2	2782
516.4	2820
516.6	2851
516.8	2885
517.0	2915
517.2	2933
517.4	2955
517.6	2975
517.8	3000
518.0	3021
518.2	3044
518.4	3061
518.6	3087
518.8	3126
519.0	3166
519.2	3204
519.4	3234
519.6	3257
519.8	3281
520.0	3304
520.2	3331
520.4	3362
520.6	3387
520.8	3411
521.0	3434
521.2	3460
521.4	3492
521.6	3521
521.8	3552
522.0	3574
522.2	3598
522.4	3627
522.6	3653
522.8	3681
523.0	3710
523.2	3733
523.4	3754
523.6	3774
523.8	3795
524.0	3822
524.2	3846
524.4	3869
524.6	3891
524.8	3923
525.0	3950
525.2	3988
525.4	4008
525.6	4029
525.8	4048
526.0	4074
526.2	4094
526.4	4123
526.6	4140
526.8	4162
527.0	4178
527.2	4203
527.4	4225
527.6	4249
527.8	4273
528.0	4294
528.2	4315
528.4	4331
528.6	4351
528.8	4367
529.0	4395
529.2	4417
529.4	4448
529.6	4467
529.8	4488
530.0	4500
530.2	4530
530.4	4555
530.6	4589
530.8	4610
531.0	4627
531.2	4633
531.4	4647
531.6	4658
531.8	4683
532.0	4705
532.2	4728
532.4	4743
532.6	4760
532.8	4775
533.0	4797
533.2	4821
533.4	4848
533.6	4859
533.8	4872
534.0	4884
534.2	4891
534.4	4901
534.6	4927
534.8	4945
535.0	4967
535.2	4992
535.4	5008
535.6	5010
535.8	5017
536.0	5029
536.2	5044
536.4	5068
536.6	5083
536.8	5087
537.0	5092
537.2	5105
537.4	5121
537.6	5134
537.8	5142
538.0	5158
538.2	5181
538.4	5206
538.6	5229
538.8	5246
539.0	5244
539.2	5238
539.4	5236
539.6	5240
539.8	5255
540.0	5274
540.2	5282
540.4	5282
540.6	5289
540.8	5292
541.0	5297
541.2	5307
541.4	5309
541.6	5318
541.8	5340
542.0	5350
542.2	5361
542.4	5375
542.6	5380
542.8	5391
543.0	5402
543.2	5406
543.4	5413
543.6	5421
543.8	5427
544.0	5432
544.2	5433
544.4	5435
544.6	5443
544.8	5442
545.0	5450
545.2	5453
545.4	5458
545.6	5469
545.8	5477
546.0	5466
546.2	5471
546.4	5470
546.6	5473
546.8	5482
547.0	5489
547.2	5486
547.4	5481
547.6	5479
547.8	5482
548.0	5488
548.2	5494
548.4	5503
548.6	5495
548.8	5494
549.0	5493
549.2	5492
549.4	5488
549.6	5486
549.8	5480
550.0	5491
550.2	5497
550.4	5503
550.6	5504
550.8	5495
551.0	5487
551.2	5486
551.4	5476
551.6	5475
551.8	5481
552.0	5483
552.2	5483
552.4	5483
552.6	5472
552.8	5466
553.0	5459
553.2	5450
553.4	5450
553.6	5457
553.8	5452
554.0	5449
554.2	5443
554.4	5444
554.6	5441
554.8	5442
555.0	5435
555.2	5423
555.4	5423
555.6	5433
555.8	5433
556.0	5426
556.2	5415
556.4	5398
556.6	5386
556.8	5386
557.0	5379
557.2	5366
557.4	5348
557.6	5339
557.8	5332
558.0	5338
558.2	5338
558.4	5343
558.6	5336
558.8	5324
559.0	5311
559.2	5298
559.4	5290
559.6	5293
559.8	5287
560.0	5267
560.2	5257
560.4	5254
560.6	5253
560.8	5258
561.0	5250
561.2	5235
561.4	5226
561.6	5212
561.8	5194
562.0	5185
562.2	5176
562.4	5174
562.6	5168
562.8	5155
563.0	5139
563.2	5130
563.4	5123
563.6	5116
563.8	5109
564.0	5104
564.2	5096
564.4	5081
564.6	5065
564.8	5052
565.0	5035
565.2	5029
565.4	5023
565.6	5007
565.8	4997
566.0	4995
566.2	4982
566.4	4969
566.6	4959
566.8	4944
567.0	4934
567.2	4924
567.4	4907
567.6	4890
567.8	4882
568.0	4875
568.2	4868
568.4	4853
568.6	4834
568.8	4817
569.0	4809
569.2	4804
569.4	4802
569.6	4800
569.8	4785
570.0	4775
570.2	4764
570.4	4742
570.6	4722
570.8	4712
571.0	4696
571.2	4694
571.4	4690
571.6	4674
571.8	4652
572.0	4637
572.2	4620
572.4	4607
572.6	4599
572.8	4582
573.0	4572
573.2	4565
573.4	4559
573.6	4545
573.8	4530
574.0	4508
574.2	4500
574.4	4497
574.6	4485
574.8	4475
575.0	4463
575.2	4451
575.4	4440
575.6	4429
575.8	4408
576.0	4392
576.2	4378
576.4	4362
576.6	4344
576.8	4332
577.0	4323
577.2	4313
577.4	4306
577.6	4293
577.8	4280
578.0	4266
578.2	4247
578.4	4235
578.6	4220
578.8	4215
579.0	4211
579.2	4197
579.4	4178
579.6	4154
579.8	4124
580.0	4116
580.2	4115
580.4	4109
580.6	4104
580.8	4076
581.0	4053
581.2	4035
581.4	4031
581.6	4023
581.8	4020
582.0	3997
582.2	3987
582.4	3973
582.6	3957
582.8	3941
583.0	3924
583.2	3902
583.4	3899
583.6	3896
583.8	3882
584.0	3870
584.2	3851
584.4	3833
584.6	3817
584.8	3811
585.0	3796
585.2	3783
585.4	3774
585.6	3757
585.8	3738
586.0	3731
586.2	3715
586.4	3706
586.6	3700
586.8	3680
587.0	3658
587.2	3644
587.4	3637
587.6	3634
587.8	3627
588.0	3611
588.2	3590
588.4	3571
588.6	3561
588.8	3549
589.0	3537
589.2	3524
589.4	3511
589.6	3495
589.8	3483
590.0	3472
590.2	3459
590.4	3441
590.6	3423
590.8	3408
591.0	3402
591.2	3402
591.4	3391
591.6	3373
591.8	3351
592.0	3335
592.2	3324
592.4	3314
592.6	3297
592.8	3279
593.0	3267
593.2	3265
593.4	3265
593.6	3256
593.8	3240
594.0	3221
594.2	3205
594.4	3198
594.6	3186
594.8	3174
595.0	3155
595.2	3135
595.4	3121
595.6	3106
595.8	3092
596.0	3085
596.2	3074
596.4	3069
596.6	3067
596.8	3058
597.0	3046
597.2	3037
597.4	3018
597.6	2996
597.8	2974
598.0	2961
598.2	2948
598.4	2946
598.6	2938
598.8	2929
599.0	2916
599.2	2908
599.4	2893
599.6	2874
599.8	2854
600.0	2841
600.2	2824
600.4	2817
600.6	2806
600.8	2795
601.0	2788
601.2	2778
601.4	2765
601.6	2755
601.8	2738
602.0	2728
602.2	2719
602.4	2702
602.6	2686
602.8	2681
603.0	2664
603.2	2656
603.4	2646
603.6	2632
603.8	2617
604.0	2612
604.2	2600
604.4	2591
604.6	2576
604.8	2564
605.0	2546
605.2	2533
605.4	2524
605.6	2517
605.8	2504
606.0	2494
606.2	2487
606.4	2479
606.6	2469
606.8	2455
607.0	2437
607.2	2419
607.4	2406
607.6	2398
607.8	2394
608.0	2387
608.2	2375
608.4	2364
608.6	2349
608.8	2337
609.0	2324
609.2	2312
609.4	2303
609.6	2295
609.8	2286
610.0	2277
610.2	2268
610.4	2258
610.6	2253
610.8	2234
611.0	2219
611.2	2207
611.4	2197
611.6	2185
611.8	2174
612.0	2164
612.2	2157
612.4	2148
612.6	2139
612.8	2128
613.0	2118
613.2	2109
613.4	2100
613.6	2088
613.8	2077
614.0	2063
614.2	2056
614.4	2045
614.6	2035
614.8	2023
615.0	2010
615.2	1998
615.4	1998
615.6	1990
615.8	1978
616.0	1966
616.2	1954
616.4	1940
616.6	1929
616.8	1918
617.0	1910
617.2	1903
617.4	1897
617.6	1893
617.8	1884
618.0	1876
618.2	1864
618.4	1847
618.6	1827
618.8	1815
619.0	1806
619.2	1797
619.4	1791
619.6	1780
619.8	1771
620.0	1767
620.2	1759
620.4	1749
620.6	1740
620.8	1721
621.0	1708
621.2	1699
621.4	1689
621.6	1685
621.8	1685
622.0	1675
622.2	1670
622.4	1660
622.6	1649
622.8	1641
623.0	1631
623.2	1620
623.4	1611
623.6	1602
623.8	1591
624.0	1589
624.2	1579
624.4	1574
624.6	1561
624.8	1552
625.0	1540
625.2	1536
625.4	1531
625.6	1525
625.8	1512
626.0	1499
626.2	1484
626.4	1475
626.6	1470
626.8	1465
627.0	1460
627.2	1455
627.4	1446
627.6	1435
627.8	1425
628.0	1417
628.2	1412
628.4	1405
628.6	1399
628.8	1389
629.0	1380
629.2	1372
629.4	1365
629.6	1357
629.8	1353
630.0	1341
630.2	1328
630.4	1315
630.6	1307
630.8	1302
631.0	1300
631.2	1295
631.4	1291
631.6	1285
631.8	1277
632.0	1267
632.2	1258
632.4	1250
632.6	1246
632.8	1240
633.0	1229
633.2	1221
633.4	1213
633.6	1203
633.8	1194
634.0	1190
634.2	1184
634.4	1180
634.6	1177
634.8	1170
635.0	1161
635.2	1157
635.4	1151
635.6	1143
635.8	1134
636.0	1124
636.2	1115
636.4	1111
636.6	1109
636.8	1107
637.0	1100
637.2	1089
637.4	1080
637.6	1075
637.8	1068
638.0	1061
638.2	1052
638.4	1044
638.6	1042
638.8	1039
639.0	1033
639.2	1026
639.4	1020
639.6	1016
639.8	1011
640.0	1001
640.2	991.5
640.4	983.2
640.6	977.2
640.8	976.0
641.0	973.8
641.2	969.3
641.4	965.8
641.6	959.0
641.8	949.5
642.0	945.0
642.2	939.8
642.4	933.8
642.6	927.2
642.8	919.0
643.0	910.5
643.2	905.5
643.4	903.2
643.6	900.4
643.8	892.8
644.0	887.6
644.2	883.2
644.4	879.5
644.6	875.4
644.8	871.0
645.0	861.4
645.2	855.9
645.4	852.4
645.6	848.4
645.8	843.0
646.0	839.4
646.2	832.6
646.4	828.3
646.6	823.4
646.8	816.7
647.0	812.6
647.2	805.8
647.4	797.0
647.6	788.7
647.8	783.4
648.0	780.0
648.2	778.8
648.4	774.6
648.6	769.5
648.8	761.7
649.0	756.1
649.2	752.3
649.4	747.8
649.6	745.5
649.8	745.9
650.0	743.5
650.2	738.5
650.4	731.7
650.6	723.3
650.8	715.7
651.0	711.8
651.2	709.9
651.4	705.6
651.6	701.9
651.8	698.8
652.0	691.3
652.2	686.1
652.4	682.1
652.6	677.3
652.8	670.7
653.0	664.5
653.2	657.7
653.4	656.9
653.6	656.9
653.8	655.0
654.0	649.9
654.2	644.4
654.4	638.5
654.6	637.4
654.8	631.0
655.0	626.0
655.2	621.6
655.4	621.0
655.6	617.6
655.8	616.7
656.0	611.4
656.2	606.8
656.4	599.4
656.6	598.4
656.8	595.3
657.0	594.7
657.2	591.7
657.4	584.5
657.6	578.0
657.8	572.6
658.0	569.0
658.2	568.1
658.4	562.2
658.6	556.8
658.8	553.5
659.0	549.1
659.2	547.8
659.4	550.4
659.6	546.9
659.8	542.8
660.0	534.6
660.2	527.8
660.4	523.8
660.6	524.7
660.8	522.6
661.0	520.2
661.2	514.3
661.4	510.3
661.6	511.3
661.8	510.6
662.0	508.0
662.2	504.5
662.4	499.0
662.6	491.2
662.8	489.0
663.0	484.0
663.2	481.7
663.4	479.1
663.6	476.3
663.8	473.8
664.0	471.5
664.2	467.0
664.4	463.3
664.6	456.6
664.8	454.4
665.0	452.8
665.2	453.8
665.4	451.9
665.6	449.6
665.8	445.5
666.0	441.5
666.2	435.2
666.4	431.5
666.6	425.4
666.8	424.5
667.0	423.8
667.2	422.6
667.4	421.2
667.6	417.2
667.8	411.9
668.0	411.0
668.2	409.1
668.4	407.1
668.6	403.6
668.8	399.4
669.0	394.3
669.2	390.6
669.4	388.7
669.6	387.7
669.8	384.9
670.0	383.7
670.2	381.7
670.4	378.1
670.6	375.6
670.8	375.3
671.0	373.3
671.2	371.0
671.4	369.1
671.6	362.8
671.8	360.6
672.0	359.4
672.2	360.0
672.4	359.8
672.6	360.1
672.8	354.9
673.0	352.9
673.2	348.2
673.4	345.3
673.6	341.7
673.8	338.7
674.0	333.2
674.2	330.3
674.4	327.6
674.6	327.6
674.8	327.8
675.0	324.4
675.2	320.6
675.4	318.5
675.6	317.3
675.8	316.2
676.0	317.3
676.2	313.9
676.4	312.2
676.6	309.0
676.8	305.2
677.0	304.0
677.2	303.6
677.4	300.6
677.6	298.2
677.8	295.1
678.0	292.3
678.2	291.0
678.4	288.2
678.6	284.4
678.8	282.5
679.0	280.6
679.2	280.7
679.4	278.8
679.6	277.5
679.8	276.2
680.0	275.2
680.2	272.6
680.4	270.5
680.6	267.6
680.8	266.7
681.0	264.4
681.2	263.6
681.4	263.5
681.6	264.0
681.8	261.3
682.0	258.5
682.2	254.3
682.4	252.8
682.6	251.0
682.8	250.3
683.0	246.5
683.2	242.8
683.4	241.8
683.6	242.1
683.8	241.7
684.0	239.5
684.2	235.4
684.4	232.2
684.6	232.1
684.8	232.4
685.0	234.0
685.2	232.2
685.4	227.9
685.6	225.7
685.8	224.2
686.0	222.6
686.2	221.0
686.4	219.4
686.6	218.3
686.8	217.1
687.0	215.2
687.2	213.4
687.4	211.5
687.6	211.3
687.8	210.7
688.0	210.5
688.2	208.1
688.4	206.3
688.6	204.9
688.8	202.7
689.0	199.5
689.2	198.9
689.4	196.8
689.6	196.0
689.8	196.4
690.0	195.6
690.2	194.4
690.4	192.0
690.6	189.6
690.8	188.7
691.0	188.4
691.2	186.3
691.4	184.1
691.6	181.6
691.8	180.3
692.0	180.4
692.2	181.1
692.4	180.5
692.6	179.3
692.8	179.5
693.0	178.0
693.2	174.8
693.4	173.4
693.6	173.2
693.8	172.2
694.0	174.3
694.2	173.0
694.4	171.3
694.6	170.4
694.8	168.5
695.0	165.5
695.2	164.4
695.4	162.5
695.6	162.0
695.8	161.3
696.0	160.1
696.2	159.5
696.4	159.5
696.6	159.1
696.8	158.4
697.0	157.5
697.2	155.4
697.4	153.4
697.6	153.2
697.8	151.2
698.0	151.2
698.2	151.0
698.4	149.7
698.6	148.8
698.8	149.6
699.0	146.6
699.2	145.1
699.4	143.4
699.6	142.5
699.8	142.9
700.0	144.8
700.2	143.6
700.4	142.1
700.6	140.0
700.8	137.6
701.0	136.6
701.2	135.9
701.4	136.1
701.6	135.4
701.8	133.8
702.0	132.7
702.2	132.8
702.4	131.8
702.6	132.1
702.8	131.6
703.0	130.1
703.2	129.7
703.4	129.9
703.6	129.4
703.8	129.4
704.0	129.3
704.2	126.9
704.4	125.7
704.6	124.2
704.8	122.5
705.0	121.2
705.2	121.6
705.4	120.7
705.6	121.0
705.8	120.8
706.0	119.4
706.2	118.5
706.4	118.7
706.6	118.1
706.8	117.2
707.0	115.6
707.2	113.7
707.4	112.8
707.6	113.1
707.8	112.6
708.0	112.6
708.2	111.8
708.4	111.2
708.6	111.3
708.8	110.2
709.0	107.6
709.2	105.6
709.4	104.7
709.6	105.0
709.8	106.0
710.0	104.8
710.2	104.5
710.4	103.0
710.6	103.1
710.8	103.6
711.0	103.8
711.2	101.8
711.4	101.2
711.6	100.3
711.8	101.5
712.0	101.3
712.2	99.84
712.4	97.25
712.6	95.28
712.8	94.53
713.0	95.89
713.2	95.34
713.4	94.84
713.6	94.85
713.8	93.94
714.0	91.94
714.2	91.52
714.4	89.61
714.6	89.30
714.8	89.20
715.0	88.67
715.2	88.06
715.4	88.14
715.6	87.17
715.8	87.26
716.0	86.72
716.2	86.48
716.4	86.97
716.6	86.44
716.8	84.27
717.0	83.53
717.2	82.30
717.4	82.58
717.6	82.34
717.8	81.96
718.0	80.77
718.2	80.14
718.4	80.16
718.6	80.13
718.8	79.28
719.0	78.40
719.2	76.87
719.4	76.13
719.6	76.12
719.8	75.58
720.0	75.17
720.2	74.47
720.4	73.85
720.6	74.17
720.8	73.99
721.0	73.37
721.2	72.37
721.4	71.52
721.6	71.15
721.8	70.86
722.0	70.84
722.2	70.84
722.4	70.85
722.6	70.25
722.8	69.50
723.0	68.43
723.2	67.65
723.4	67.13
723.6	66.96
723.8	66.32
724.0	66.11
724.2	65.96
724.4	65.50
724.6	64.36
724.8	63.46
725.0	62.65
725.2	61.80
725.4	61.23
725.6	61.31
725.8	61.26
726.0	61.01
726.2	60.81
726.4	59.77
726.6	58.87
726.8	59.37
727.0	59.22
727.2	58.36
727.4	57.75
727.6	56.65
727.8	55.84
728.0	55.20
728.2	54.40
728.4	54.35
728.6	55.22
728.8	55.29
729.0	54.62
729.2	53.34
729.4	52.11
729.6	51.23
729.8	52.12
730.0	52.25
730.2	52.08
730.4	51.11
730.6	49.48
730.8	48.48
731.0	49.30
731.2	49.62
731.4	49.82
731.6	49.00
731.8	48.04
732.0	47.03
732.2	46.98
732.4	47.05
732.6	47.64
732.8	47.77
733.0	48.04
733.2	47.60
733.4	46.12
733.6	45.17
733.8	44.81
734.0	44.19
734.2	44.25
734.4	43.99
734.6	43.41
734.8	43.43
735.0	43.35
735.2	43.54
735.4	43.40
735.6	42.15
735.8	41.90
736.0	41.48
736.2	41.37
736.4	41.85
736.6	41.78
736.8	41.54
737.0	41.07
737.2	40.10
737.4	39.38
737.6	39.32
737.8	39.13
738.0	38.71
738.2	38.57
738.4	38.03
738.6	38.11
738.8	38.48
739.0	38.66
739.2	38.13
739.4	37.97
739.6	37.16
739.8	36.68
740.0	36.33
740.2	36.00
740.4	35.97
740.6	35.98
740.8	35.95
741.0	35.40
741.2	35.23
741.4	34.83
741.6	34.21
741.8	33.65
742.0	33.21
742.2	32.36
742.4	32.86
742.6	33.18
742.8	32.75
743.0	32.22
743.2	32.02
743.4	31.87
743.6	32.70
743.8	32.57
744.0	31.70
744.2	30.97
744.4	30.99
744.6	31.04
744.8	31.46
745.0	30.55
745.2	30.42
745.4	29.87
745.6	29.94
745.8	30.28
746.0	30.58
746.2	29.66
746.4	30.44
746.6	30.49
746.8	29.82
747.0	28.94
747.2	28.53
747.4	28.13
747.6	28.02
747.8	28.16
748.0	27.63
748.2	26.92
748.4	26.77
748.6	26.47
748.8	25.84
749.0	26.12
749.2	26.45
749.4	26.60
749.6	25.93
749.8	24.94
750.0	24.86
750.2	24.87
750.4	24.76
750.6	24.96
750.8	25.07
751.0	24.94
751.2	24.77
751.4	24.64
751.6	24.61
751.8	24.20
752.0	23.87
752.2	23.38
752.4	22.41
752.6	22.66
752.8	22.94
753.0	23.05
753.2	22.94
753.4	23.15
753.6	22.51
753.8	22.48
754.0	22.60
754.2	22.73
754.4	22.43
754.6	22.09
754.8	21.18
755.0	20.93
755.2	21.30
755.4	21.76
755.6	21.86
755.8	21.99
756.0	21.90
756.2	21.29
756.4	20.68
756.6	20.21
756.8	19.59
757.0	19.25
757.2	19.40
757.4	19.73
757.6	20.55
757.8	20.80
758.0	20.05
758.2	18.72
758.4	17.88
758.6	18.29
758.8	19.17
759.0	19.67
759.2	19.59
759.4	19.07
759.6	18.44
759.8	18.37
760.0	18.39
760.2	18.40
760.4	18.44
760.6	17.97
760.8	17.59
761.0	17.40
761.2	17.56
761.4	17.76
761.6	17.82
761.8	17.62
762.0	17.34
762.2	16.96
762.4	16.63
762.6	16.81
762.8	17.02
763.0	17.35
763.2	16.70
763.4	16.16
763.6	15.85
763.8	16.07
764.0	16.10
764.2	16.29
764.4	15.66
764.6	15.41
764.8	15.21
765.0	15.08
765.2	14.78
765.4	14.75
765.6	14.71
765.8	14.59
766.0	14.41
766.2	14.55
766.4	14.57
766.6	14.22
766.8	14.46
767.0	14.93
767.2	14.96
767.4	14.83
767.6	14.55
767.8	13.79
768.0	13.42
768.2	14.10
768.4	14.29
768.6	14.01
768.8	14.17
769.0	14.02
769.2	13.34
769.4	13.06
769.6	13.07
769.8	13.09
770.0	13.47
770.2	13.64
770.4	13.16
770.6	13.04
770.8	13.38
771.0	13.49
771.2	13.28
771.4	12.62
771.6	11.73
771.8	11.26
772.0	11.57
772.2	11.69
772.4	12.18
772.6	12.72
772.8	12.80
773.0	12.43
773.2	12.36
773.4	11.68
773.6	11.70
773.8	11.74
774.0	11.68
774.2	11.53
774.4	11.63
774.6	11.31
774.8	11.39
775.0	11.60
775.2	11.43
775.4	11.22
775.6	11.08
775.8	10.76
776.0	10.87
776.2	11.10
776.4	11.02
776.6	11.17
776.8	11.16
777.0	11.02
777.2	11.13
777.4	10.99
777.6	10.88
777.8	10.64
778.0	10.23
778.2	9.847
778.4	9.754
778.6	9.899
778.8	10.13
779.0	10.29
779.2	10.18
779.4	10.33
779.6	10.09
779.8	9.967
780.0	9.922
780.2	9.995
780.4	9.926
780.6	9.830
780.8	9.419
781.0	9.312
781.2	9.198
781.4	9.456
781.6	9.736
781.8	9.757
782.0	9.584
782.2	9.869
782.4	9.629
782.6	9.721
782.8	9.685
783.0	9.933
783.2	9.907
783.4	10.00
783.6	9.455
783.8	9.257
784.0	9.105
784.2	9.379
784.4	9.266
784.6	9.674
784.8	9.578
785.0	9.935
785.2	10.14
785.4	9.607
785.6	8.770
785.8	8.732
786.0	8.543
786.2	9.209
786.4	9.438
786.6	9.189
786.8	9.084
787.0	9.214
787.2	9.420
787.4	9.728
787.6	9.537
787.8	9.131
788.0	8.926
788.2	8.938
788.4	9.215
788.6	9.144
788.8	8.852
789.0	8.527
789.2	8.634
789.4	9.116
789.6	9.660
789.8	10.04
790.0	9.784
790.2	9.283
790.4	9.192
790.6	9.217
790.8	9.212
791.0	9.443
791.2	8.911
791.4	8.797
791.6	9.139
791.8	9.283
792.0	9.616
792.2	9.342
792.4	9.115
792.6	9.356
792.8	9.636
793.0	9.627
793.2	9.594
793.4	9.182
793.6	9.294
793.8	9.662
794.0	9.656
794.2	9.548
794.4	9.553
794.6	9.670
794.8	9.607
795.0	10.13
795.2	10.07
795.4	10.03
795.6	9.892
795.8	9.672
796.0	9.301
796.2	9.632
796.4	9.796
796.6	10.39
796.8	10.31
797.0	10.30
797.2	9.997
797.4	10.17
797.6	10.19
797.8	10.75
798.0	10.37
798.2	10.16
798.4	9.766
798.6	9.949
798.8	9.862
799.0	10.37
799.2	10.49
799.4	10.57
799.6	10.74
799.8	10.73
800.0	10.43

