Sample:	'20211010A(EM)
File name:	B-CDS 8.FDS
Run date:	'14:27:19, 06/08/2023
Operator:	Administrator
Comment:	'

Instrument
Model:	F-4700 FL Spectrophotometer
Serial number:	2019-001
ROM Version:	5J24010 00

Instrument parameters
Measurement type:	Wavelength scan
Scan mode:	Emission
Data mode:	Fluorescence
EX WL:	350.0 nm
EM  Start WL:	370.0 nm
EM  End WL:	680.0 nm
Scan speed:	1200 nm/min
Delay:	0.0 s
EX Slit:	10.0 nm
EM Slit:	10.0 nm
PMT Voltage:	550 V
Response:	0.002 s
Corrected spectra:	Off
Shutter control:	On

Processing performed
Savitsky-Golay smoothed
Smoothing order:	3
Number of points:	7
Number of times:	1

Peak integration
Integration method:	Rectangular
Sensitivity:	1
Threshold:	1.000

Peaks
No.	Start(nm)	Apex(nm)	End(nm)	Height(Data)	Valley(nm)	Valley(Data)
1	370.0	376.6	378.2	5.803	378.2	4.378
2	378.2	379.2	382.0	5.540	382.0	4.307
3	382.0	383.8	386.2	5.844	386.2	4.616
4	386.2	387.0	390.2	6.412	390.2	4.850
5	390.2	392.4	394.2	7.183	394.2	5.342
6	394.2	495.8	496.8	2415	496.8	2402
7	496.8	497.6	499.2	2420	499.2	2400
8	499.2	500.0	501.6	2423	501.6	2369
9	501.6	502.6	505.6	2420	505.6	2340
10	505.6	506.2	508.2	2358	508.2	2290
11	508.2	509.2	644.4	2300	644.4	120.7
12	644.4	645.0	657.0	123.8	657.0	79.74
13	657.0	658.0	661.4	84.03	661.4	71.25
14	661.4	662.2	664.6	72.52	664.6	64.89
15	664.6	665.4	674.2	68.30	674.2	47.98
16	674.2	675.2	680.0	49.21	680.0	39.55

Data points
nm	Data
370.0	4.815
370.2	5.254
370.4	5.084
370.6	4.655
370.8	4.679
371.0	4.482
371.2	4.202
371.4	4.480
371.6	4.540
371.8	4.790
372.0	5.692
372.2	5.537
372.4	5.034
372.6	5.156
372.8	4.762
373.0	4.599
373.2	5.020
373.4	4.994
373.6	4.836
373.8	4.667
374.0	4.575
374.2	4.608
374.4	5.034
374.6	5.029
374.8	5.222
375.0	4.687
375.2	5.195
375.4	5.514
375.6	5.534
375.8	5.214
376.0	5.547
376.2	5.199
376.4	5.592
376.6	5.803
376.8	5.601
377.0	5.157
377.2	5.139
377.4	4.843
377.6	4.561
377.8	4.579
378.0	4.785
378.2	4.378
378.4	4.642
378.6	4.824
378.8	4.888
379.0	5.026
379.2	5.540
379.4	5.400
379.6	5.253
379.8	4.936
380.0	4.444
380.2	4.323
380.4	4.537
380.6	4.808
380.8	4.624
381.0	4.870
381.2	4.658
381.4	4.554
381.6	4.510
381.8	4.488
382.0	4.307
382.2	4.744
382.4	4.750
382.6	4.608
382.8	4.515
383.0	4.658
383.2	5.457
383.4	5.710
383.6	5.633
383.8	5.844
384.0	5.156
384.2	5.242
384.4	5.746
384.6	5.084
384.8	5.029
385.0	5.061
385.2	4.952
385.4	5.157
385.6	5.408
385.8	5.139
386.0	4.873
386.2	4.616
386.4	5.275
386.6	5.652
386.8	6.088
387.0	6.412
387.2	5.482
387.4	5.540
387.6	5.897
387.8	6.004
388.0	6.120
388.2	5.988
388.4	5.163
388.6	5.166
388.8	5.062
389.0	5.494
389.2	5.981
389.4	5.837
389.6	5.633
389.8	5.333
390.0	5.083
390.2	4.850
390.4	4.968
390.6	5.090
390.8	5.506
391.0	5.662
391.2	6.103
391.4	5.382
391.6	5.420
391.8	5.481
392.0	5.912
392.2	6.507
392.4	7.183
392.6	6.895
392.8	6.731
393.0	6.363
393.2	6.003
393.4	5.839
393.6	5.941
393.8	5.895
394.0	5.437
394.2	5.342
394.4	5.376
394.6	5.937
394.8	6.713
395.0	6.984
395.2	6.994
395.4	6.510
395.6	6.052
395.8	6.321
396.0	6.587
396.2	6.850
396.4	6.869
396.6	6.946
396.8	7.039
397.0	7.140
397.2	7.102
397.4	7.135
397.6	6.472
397.8	6.934
398.0	7.876
398.2	8.079
398.4	8.131
398.6	8.078
398.8	7.437
399.0	7.588
399.2	7.978
399.4	7.944
399.6	7.971
399.8	7.979
400.0	8.093
400.2	8.307
400.4	8.349
400.6	8.523
400.8	8.368
401.0	8.562
401.2	8.687
401.4	9.104
401.6	9.123
401.8	9.418
402.0	9.432
402.2	9.942
402.4	10.27
402.6	10.95
402.8	11.29
403.0	11.54
403.2	11.83
403.4	12.53
403.6	12.52
403.8	12.50
404.0	12.37
404.2	11.79
404.4	11.72
404.6	12.10
404.8	12.81
405.0	14.06
405.2	14.73
405.4	15.17
405.6	15.14
405.8	15.50
406.0	16.15
406.2	16.89
406.4	17.38
406.6	18.19
406.8	18.28
407.0	19.71
407.2	20.10
407.4	20.63
407.6	21.23
407.8	21.52
408.0	21.98
408.2	23.58
408.4	24.25
408.6	24.89
408.8	25.11
409.0	25.64
409.2	26.71
409.4	27.28
409.6	29.13
409.8	30.68
410.0	31.55
410.2	33.87
410.4	35.61
410.6	36.65
410.8	38.64
411.0	40.31
411.2	41.29
411.4	42.34
411.6	43.24
411.8	43.83
412.0	45.73
412.2	48.22
412.4	50.43
412.6	51.71
412.8	53.47
413.0	53.81
413.2	54.82
413.4	57.35
413.6	58.40
413.8	59.21
414.0	61.78
414.2	64.38
414.4	66.55
414.6	71.49
414.8	73.79
415.0	75.86
415.2	79.97
415.4	82.49
415.6	83.96
415.8	86.43
416.0	87.94
416.2	89.70
416.4	95.09
416.6	99.46
416.8	103.9
417.0	107.8
417.2	110.2
417.4	111.4
417.6	116.6
417.8	120.9
418.0	123.8
418.2	125.4
418.4	128.3
418.6	129.9
418.8	136.6
419.0	142.9
419.2	146.9
419.4	148.7
419.6	153.5
419.8	153.9
420.0	159.0
420.2	164.8
420.4	170.5
420.6	174.5
420.8	178.7
421.0	181.2
421.2	185.8
421.4	190.4
421.6	198.8
421.8	205.2
422.0	211.4
422.2	216.2
422.4	220.4
422.6	222.0
422.8	226.2
423.0	230.3
423.2	234.1
423.4	240.6
423.6	246.4
423.8	250.0
424.0	257.4
424.2	264.9
424.4	267.9
424.6	271.8
424.8	277.4
425.0	280.8
425.2	289.7
425.4	301.6
425.6	309.1
425.8	313.0
426.0	317.2
426.2	318.6
426.4	323.1
426.6	329.4
426.8	330.7
427.0	336.3
427.2	343.9
427.4	355.1
427.6	367.3
427.8	375.5
428.0	375.5
428.2	381.6
428.4	387.4
428.6	392.0
428.8	396.8
429.0	400.8
429.2	402.2
429.4	406.2
429.6	412.5
429.8	420.8
430.0	426.0
430.2	437.0
430.4	441.1
430.6	446.2
430.8	455.0
431.0	462.5
431.2	465.2
431.4	474.8
431.6	479.5
431.8	488.3
432.0	495.2
432.2	498.6
432.4	502.4
432.6	508.3
432.8	516.1
433.0	524.9
433.2	532.0
433.4	537.8
433.6	539.8
433.8	543.6
434.0	552.3
434.2	562.8
434.4	571.9
434.6	577.7
434.8	577.4
435.0	581.6
435.2	586.9
435.4	594.0
435.6	602.4
435.8	610.4
436.0	615.0
436.2	619.7
436.4	622.6
436.6	631.2
436.8	641.4
437.0	648.2
437.2	650.2
437.4	653.0
437.6	661.4
437.8	672.7
438.0	679.4
438.2	679.0
438.4	676.0
438.6	676.9
438.8	686.9
439.0	691.3
439.2	697.6
439.4	706.6
439.6	713.5
439.8	719.2
440.0	726.7
440.2	727.9
440.4	736.7
440.6	745.1
440.8	745.0
441.0	744.5
441.2	746.5
441.4	748.9
441.6	759.6
441.8	768.4
442.0	775.0
442.2	784.3
442.4	790.1
442.6	793.1
442.8	794.6
443.0	795.9
443.2	802.9
443.4	808.2
443.6	808.7
443.8	815.4
444.0	818.6
444.2	820.9
444.4	824.2
444.6	831.9
444.8	839.3
445.0	852.9
445.2	864.4
445.4	868.1
445.6	868.9
445.8	868.3
446.0	865.0
446.2	868.6
446.4	879.2
446.6	888.0
446.8	897.2
447.0	898.4
447.2	899.3
447.4	904.5
447.6	912.2
447.8	916.0
448.0	915.4
448.2	911.8
448.4	920.7
448.6	933.4
448.8	946.9
449.0	952.0
449.2	959.3
449.4	960.0
449.6	967.3
449.8	971.7
450.0	974.6
450.2	977.2
450.4	988.2
450.6	989.8
450.8	992.7
451.0	996.5
451.2	999.7
451.4	1012
451.6	1023
451.8	1022
452.0	1025
452.2	1029
452.4	1038
452.6	1056
452.8	1067
453.0	1071
453.2	1073
453.4	1069
453.6	1073
453.8	1088
454.0	1102
454.2	1112
454.4	1116
454.6	1113
454.8	1117
455.0	1127
455.2	1136
455.4	1144
455.6	1152
455.8	1159
456.0	1172
456.2	1180
456.4	1181
456.6	1185
456.8	1189
457.0	1191
457.2	1203
457.4	1215
457.6	1218
457.8	1232
458.0	1239
458.2	1246
458.4	1257
458.6	1265
458.8	1267
459.0	1276
459.2	1284
459.4	1297
459.6	1308
459.8	1313
460.0	1318
460.2	1322
460.4	1328
460.6	1338
460.8	1344
461.0	1352
461.2	1357
461.4	1370
461.6	1383
461.8	1393
462.0	1394
462.2	1396
462.4	1399
462.6	1414
462.8	1436
463.0	1454
463.2	1464
463.4	1466
463.6	1468
463.8	1468
464.0	1474
464.2	1483
464.4	1500
464.6	1513
464.8	1520
465.0	1532
465.2	1540
465.4	1556
465.6	1570
465.8	1566
466.0	1560
466.2	1564
466.4	1572
466.6	1587
466.8	1598
467.0	1610
467.2	1619
467.4	1628
467.6	1635
467.8	1642
468.0	1650
468.2	1662
468.4	1675
468.6	1689
468.8	1696
469.0	1704
469.2	1700
469.4	1697
469.6	1711
469.8	1722
470.0	1729
470.2	1740
470.4	1750
470.6	1764
470.8	1783
471.0	1796
471.2	1805
471.4	1812
471.6	1814
471.8	1816
472.0	1823
472.2	1825
472.4	1831
472.6	1845
472.8	1854
473.0	1857
473.2	1864
473.4	1866
473.6	1867
473.8	1884
474.0	1896
474.2	1902
474.4	1913
474.6	1926
474.8	1934
475.0	1950
475.2	1964
475.4	1964
475.6	1973
475.8	1979
476.0	1992
476.2	2005
476.4	2006
476.6	2002
476.8	2005
477.0	2011
477.2	2032
477.4	2045
477.6	2049
477.8	2053
478.0	2054
478.2	2058
478.4	2063
478.6	2063
478.8	2071
479.0	2077
479.2	2087
479.4	2094
479.6	2091
479.8	2096
480.0	2103
480.2	2111
480.4	2115
480.6	2124
480.8	2131
481.0	2144
481.2	2152
481.4	2165
481.6	2169
481.8	2180
482.0	2187
482.2	2189
482.4	2197
482.6	2207
482.8	2210
483.0	2213
483.2	2210
483.4	2206
483.6	2214
483.8	2230
484.0	2237
484.2	2241
484.4	2248
484.6	2244
484.8	2243
485.0	2254
485.2	2257
485.4	2269
485.6	2288
485.8	2294
486.0	2298
486.2	2296
486.4	2294
486.6	2296
486.8	2304
487.0	2305
487.2	2309
487.4	2307
487.6	2314
487.8	2319
488.0	2332
488.2	2331
488.4	2329
488.6	2325
488.8	2329
489.0	2335
489.2	2347
489.4	2349
489.6	2363
489.8	2363
490.0	2362
490.2	2366
490.4	2361
490.6	2368
490.8	2382
491.0	2373
491.2	2375
491.4	2382
491.6	2381
491.8	2383
492.0	2381
492.2	2376
492.4	2385
492.6	2398
492.8	2402
493.0	2397
493.2	2388
493.4	2387
493.6	2387
493.8	2400
494.0	2403
494.2	2406
494.4	2410
494.6	2413
494.8	2406
495.0	2410
495.2	2408
495.4	2408
495.6	2412
495.8	2415
496.0	2412
496.2	2410
496.4	2405
496.6	2402
496.8	2402
497.0	2407
497.2	2418
497.4	2419
497.6	2420
497.8	2415
498.0	2404
498.2	2411
498.4	2415
498.6	2412
498.8	2413
499.0	2406
499.2	2400
499.4	2413
499.6	2416
499.8	2419
500.0	2423
500.2	2416
500.4	2408
500.6	2407
500.8	2407
501.0	2402
501.2	2394
501.4	2377
501.6	2369
501.8	2376
502.0	2394
502.2	2410
502.4	2418
502.6	2420
502.8	2405
503.0	2390
503.2	2372
503.4	2370
503.6	2371
503.8	2373
504.0	2367
504.2	2367
504.4	2355
504.6	2358
504.8	2358
505.0	2362
505.2	2356
505.4	2348
505.6	2340
505.8	2341
506.0	2344
506.2	2358
506.4	2353
506.6	2350
506.8	2351
507.0	2345
507.2	2336
507.4	2324
507.6	2303
507.8	2293
508.0	2292
508.2	2290
508.4	2293
508.6	2296
508.8	2294
509.0	2299
509.2	2300
509.4	2297
509.6	2290
509.8	2290
510.0	2274
510.2	2272
510.4	2268
510.6	2263
510.8	2263
511.0	2266
511.2	2251
511.4	2254
511.6	2254
511.8	2247
512.0	2240
512.2	2226
512.4	2227
512.6	2228
512.8	2234
513.0	2226
513.2	2221
513.4	2208
513.6	2210
513.8	2204
514.0	2208
514.2	2210
514.4	2213
514.6	2203
514.8	2186
515.0	2169
515.2	2157
515.4	2153
515.6	2143
515.8	2146
516.0	2145
516.2	2153
516.4	2150
516.6	2144
516.8	2132
517.0	2130
517.2	2120
517.4	2121
517.6	2119
517.8	2122
518.0	2127
518.2	2124
518.4	2112
518.6	2098
518.8	2094
519.0	2088
519.2	2085
519.4	2082
519.6	2080
519.8	2071
520.0	2069
520.2	2063
520.4	2052
520.6	2043
520.8	2034
521.0	2030
521.2	2028
521.4	2034
521.6	2042
521.8	2034
522.0	2027
522.2	2028
522.4	2023
522.6	2023
522.8	2018
523.0	2007
523.2	2006
523.4	2004
523.6	1992
523.8	1983
524.0	1967
524.2	1959
524.4	1963
524.6	1964
524.8	1964
525.0	1959
525.2	1954
525.4	1949
525.6	1942
525.8	1940
526.0	1941
526.2	1939
526.4	1936
526.6	1930
526.8	1922
527.0	1911
527.2	1904
527.4	1905
527.6	1908
527.8	1908
528.0	1906
528.2	1889
528.4	1875
528.6	1869
528.8	1867
529.0	1864
529.2	1860
529.4	1852
529.6	1847
529.8	1841
530.0	1837
530.2	1832
530.4	1824
530.6	1819
530.8	1823
531.0	1825
531.2	1819
531.4	1812
531.6	1805
531.8	1801
532.0	1801
532.2	1794
532.4	1781
532.6	1774
532.8	1773
533.0	1775
533.2	1779
533.4	1776
533.6	1772
533.8	1761
534.0	1757
534.2	1741
534.4	1735
534.6	1729
534.8	1732
535.0	1730
535.2	1738
535.4	1725
535.6	1716
535.8	1701
536.0	1696
536.2	1693
536.4	1693
536.6	1679
536.8	1676
537.0	1669
537.2	1671
537.4	1675
537.6	1674
537.8	1667
538.0	1654
538.2	1642
538.4	1635
538.6	1633
538.8	1625
539.0	1621
539.2	1608
539.4	1605
539.6	1602
539.8	1598
540.0	1591
540.2	1585
540.4	1576
540.6	1577
540.8	1569
541.0	1565
541.2	1570
541.4	1566
541.6	1560
541.8	1567
542.0	1560
542.2	1556
542.4	1553
542.6	1535
542.8	1522
543.0	1520
543.2	1514
543.4	1513
543.6	1516
543.8	1510
544.0	1502
544.2	1494
544.4	1488
544.6	1486
544.8	1484
545.0	1481
545.2	1474
545.4	1464
545.6	1465
545.8	1459
546.0	1458
546.2	1455
546.4	1445
546.6	1432
546.8	1428
547.0	1414
547.2	1420
547.4	1415
547.6	1415
547.8	1405
548.0	1391
548.2	1382
548.4	1376
548.6	1367
548.8	1371
549.0	1369
549.2	1364
549.4	1364
549.6	1355
549.8	1347
550.0	1340
550.2	1337
550.4	1334
550.6	1329
550.8	1320
551.0	1312
551.2	1303
551.4	1303
551.6	1306
551.8	1302
552.0	1303
552.2	1296
552.4	1290
552.6	1284
552.8	1279
553.0	1277
553.2	1276
553.4	1272
553.6	1273
553.8	1266
554.0	1258
554.2	1258
554.4	1243
554.6	1237
554.8	1230
555.0	1223
555.2	1215
555.4	1218
555.6	1213
555.8	1207
556.0	1201
556.2	1197
556.4	1192
556.6	1189
556.8	1182
557.0	1177
557.2	1176
557.4	1169
557.6	1165
557.8	1161
558.0	1154
558.2	1156
558.4	1155
558.6	1147
558.8	1138
559.0	1129
559.2	1120
559.4	1118
559.6	1112
559.8	1114
560.0	1109
560.2	1105
560.4	1103
560.6	1097
560.8	1090
561.0	1082
561.2	1070
561.4	1069
561.6	1072
561.8	1067
562.0	1068
562.2	1059
562.4	1047
562.6	1049
562.8	1045
563.0	1040
563.2	1043
563.4	1038
563.6	1031
563.8	1028
564.0	1025
564.2	1022
564.4	1020
564.6	1012
564.8	1001
565.0	986.7
565.2	983.7
565.4	978.7
565.6	978.4
565.8	981.3
566.0	975.9
566.2	969.0
566.4	966.1
566.6	963.9
566.8	960.7
567.0	955.1
567.2	947.1
567.4	938.1
567.6	935.6
567.8	933.2
568.0	928.4
568.2	923.9
568.4	923.7
568.6	915.2
568.8	912.4
569.0	908.2
569.2	904.2
569.4	904.6
569.6	910.3
569.8	902.7
570.0	895.0
570.2	887.8
570.4	879.4
570.6	872.2
570.8	871.0
571.0	868.8
571.2	866.4
571.4	864.7
571.6	864.7
571.8	858.1
572.0	858.6
572.2	853.5
572.4	851.1
572.6	850.2
572.8	850.6
573.0	843.1
573.2	838.1
573.4	823.3
573.6	822.1
573.8	825.1
574.0	823.3
574.2	820.4
574.4	817.2
574.6	810.3
574.8	806.5
575.0	803.8
575.2	795.3
575.4	788.0
575.6	781.8
575.8	780.9
576.0	776.8
576.2	776.4
576.4	773.5
576.6	766.4
576.8	761.5
577.0	763.4
577.2	763.7
577.4	763.6
577.6	762.8
577.8	756.0
578.0	746.1
578.2	740.6
578.4	737.9
578.6	736.9
578.8	735.2
579.0	734.7
579.2	726.9
579.4	724.2
579.6	716.0
579.8	710.4
580.0	707.4
580.2	707.3
580.4	708.4
580.6	707.0
580.8	701.3
581.0	698.5
581.2	697.5
581.4	694.3
581.6	688.2
581.8	679.2
582.0	670.9
582.2	669.0
582.4	670.3
582.6	669.2
582.8	661.9
583.0	657.3
583.2	653.9
583.4	653.6
583.6	658.4
583.8	657.9
584.0	653.0
584.2	648.5
584.4	643.5
584.6	634.8
584.8	630.1
585.0	631.7
585.2	630.4
585.4	629.9
585.6	625.0
585.8	621.5
586.0	617.5
586.2	617.1
586.4	616.0
586.6	612.3
586.8	610.5
587.0	613.1
587.2	611.7
587.4	608.5
587.6	606.6
587.8	598.9
588.0	595.2
588.2	588.9
588.4	583.3
588.6	579.5
588.8	576.9
589.0	577.5
589.2	581.8
589.4	577.8
589.6	575.9
589.8	571.1
590.0	565.4
590.2	560.8
590.4	558.7
590.6	552.4
590.8	550.4
591.0	546.3
591.2	544.2
591.4	543.1
591.6	542.4
591.8	537.5
592.0	534.8
592.2	528.3
592.4	527.7
592.6	528.6
592.8	526.3
593.0	522.0
593.2	518.8
593.4	515.5
593.6	514.8
593.8	512.4
594.0	507.6
594.2	505.8
594.4	505.1
594.6	505.0
594.8	501.2
595.0	498.7
595.2	493.8
595.4	490.7
595.6	488.2
595.8	490.5
596.0	489.8
596.2	486.1
596.4	479.7
596.6	473.7
596.8	473.3
597.0	477.4
597.2	479.1
597.4	471.3
597.6	465.8
597.8	462.6
598.0	464.5
598.2	467.6
598.4	464.6
598.6	455.5
598.8	451.4
599.0	448.1
599.2	445.4
599.4	446.3
599.6	445.1
599.8	444.0
600.0	440.2
600.2	435.0
600.4	429.7
600.6	426.5
600.8	424.2
601.0	426.6
601.2	426.8
601.4	424.5
601.6	420.3
601.8	415.3
602.0	409.4
602.2	410.3
602.4	407.1
602.6	408.5
602.8	405.9
603.0	402.0
603.2	400.4
603.4	396.6
603.6	388.5
603.8	390.4
604.0	391.1
604.2	394.0
604.4	394.4
604.6	390.9
604.8	384.9
605.0	376.9
605.2	372.7
605.4	372.6
605.6	371.7
605.8	372.4
606.0	368.4
606.2	363.8
606.4	359.2
606.6	360.4
606.8	359.8
607.0	363.5
607.2	362.3
607.4	363.4
607.6	359.1
607.8	357.8
608.0	354.4
608.2	355.4
608.4	354.8
608.6	356.4
608.8	354.7
609.0	350.7
609.2	351.1
609.4	347.9
609.6	343.0
609.8	339.5
610.0	335.3
610.2	331.2
610.4	330.1
610.6	330.6
610.8	329.7
611.0	329.7
611.2	330.2
611.4	329.5
611.6	323.0
611.8	320.7
612.0	319.4
612.2	319.7
612.4	320.6
612.6	318.8
612.8	317.0
613.0	310.7
613.2	307.8
613.4	303.5
613.6	298.9
613.8	295.9
614.0	296.5
614.2	295.4
614.4	298.6
614.6	299.5
614.8	298.8
615.0	295.2
615.2	291.6
615.4	288.8
615.6	286.3
615.8	287.5
616.0	285.0
616.2	285.3
616.4	285.4
616.6	282.5
616.8	278.4
617.0	278.1
617.2	273.4
617.4	272.0
617.6	270.6
617.8	269.5
618.0	271.9
618.2	274.3
618.4	274.0
618.6	269.4
618.8	266.4
619.0	262.2
619.2	260.7
619.4	255.9
619.6	251.3
619.8	248.8
620.0	248.9
620.2	251.8
620.4	252.1
620.6	250.4
620.8	247.9
621.0	247.7
621.2	246.5
621.4	245.3
621.6	244.0
621.8	242.8
622.0	242.3
622.2	242.0
622.4	237.6
622.6	231.8
622.8	231.4
623.0	230.3
623.2	230.5
623.4	232.3
623.6	232.1
623.8	230.8
624.0	230.3
624.2	227.2
624.4	223.5
624.6	220.0
624.8	219.0
625.0	219.1
625.2	218.1
625.4	218.4
625.6	217.4
625.8	213.9
626.0	211.2
626.2	210.6
626.4	209.0
626.6	209.2
626.8	206.6
627.0	205.1
627.2	203.8
627.4	205.2
627.6	204.6
627.8	203.3
628.0	200.4
628.2	198.8
628.4	197.0
628.6	197.7
628.8	196.9
629.0	194.9
629.2	194.2
629.4	191.2
629.6	189.3
629.8	189.3
630.0	188.4
630.2	187.6
630.4	189.3
630.6	188.8
630.8	187.5
631.0	186.8
631.2	183.9
631.4	182.3
631.6	183.4
631.8	183.9
632.0	182.9
632.2	181.8
632.4	177.4
632.6	173.3
632.8	171.0
633.0	169.1
633.2	168.6
633.4	170.3
633.6	170.7
633.8	172.5
634.0	171.7
634.2	170.8
634.4	168.2
634.6	167.6
634.8	166.9
635.0	165.5
635.2	162.6
635.4	161.5
635.6	158.7
635.8	158.1
636.0	159.3
636.2	155.9
636.4	155.1
636.6	153.3
636.8	153.7
637.0	153.9
637.2	155.7
637.4	153.9
637.6	152.3
637.8	150.3
638.0	149.9
638.2	148.2
638.4	149.2
638.6	147.6
638.8	145.7
639.0	144.3
639.2	143.5
639.4	143.5
639.6	144.7
639.8	141.0
640.0	139.2
640.2	137.3
640.4	136.7
640.6	135.4
640.8	135.6
641.0	134.1
641.2	133.5
641.4	132.9
641.6	134.0
641.8	133.4
642.0	133.7
642.2	132.6
642.4	131.5
642.6	130.3
642.8	130.9
643.0	130.5
643.2	128.3
643.4	126.3
643.6	125.0
643.8	123.2
644.0	121.7
644.2	121.9
644.4	120.7
644.6	121.7
644.8	123.6
645.0	123.8
645.2	123.8
645.4	122.0
645.6	120.0
645.8	118.5
646.0	117.8
646.2	117.1
646.4	117.0
646.6	115.5
646.8	115.3
647.0	113.7
647.2	112.1
647.4	113.7
647.6	115.2
647.8	115.2
648.0	113.3
648.2	110.7
648.4	109.8
648.6	110.1
648.8	108.6
649.0	106.9
649.2	105.9
649.4	105.0
649.6	104.0
649.8	102.9
650.0	100.2
650.2	100.4
650.4	102.3
650.6	102.3
650.8	100.2
651.0	100.6
651.2	100.5
651.4	100.7
651.6	100.2
651.8	98.35
652.0	96.48
652.2	96.12
652.4	97.15
652.6	97.61
652.8	96.38
653.0	93.62
653.2	94.10
653.4	92.09
653.6	92.01
653.8	92.80
654.0	91.78
654.2	89.92
654.4	90.56
654.6	89.70
654.8	88.99
655.0	89.13
655.2	88.51
655.4	89.14
655.6	88.35
655.8	88.39
656.0	87.85
656.2	87.08
656.4	85.58
656.6	84.69
656.8	82.11
657.0	79.74
657.2	80.41
657.4	81.17
657.6	82.46
657.8	82.54
658.0	84.03
658.2	82.72
658.4	82.23
658.6	81.12
658.8	79.50
659.0	77.81
659.2	77.57
659.4	77.17
659.6	75.49
659.8	75.75
660.0	75.39
660.2	75.78
660.4	74.05
660.6	73.48
660.8	71.40
661.0	71.62
661.2	71.55
661.4	71.25
661.6	71.69
661.8	72.02
662.0	72.49
662.2	72.52
662.4	72.10
662.6	71.33
662.8	70.84
663.0	68.73
663.2	66.63
663.4	66.09
663.6	67.39
663.8	68.19
664.0	68.35
664.2	68.17
664.4	66.22
664.6	64.89
664.8	65.46
665.0	64.91
665.2	66.71
665.4	68.30
665.6	67.37
665.8	66.23
666.0	64.78
666.2	63.61
666.4	63.47
666.6	61.84
666.8	60.34
667.0	60.18
667.2	59.82
667.4	60.80
667.6	60.34
667.8	59.15
668.0	58.92
668.2	59.43
668.4	60.19
668.6	59.61
668.8	58.94
669.0	57.49
669.2	56.94
669.4	57.56
669.6	58.29
669.8	58.28
670.0	58.52
670.2	56.85
670.4	55.33
670.6	54.40
670.8	54.02
671.0	53.76
671.2	53.53
671.4	52.94
671.6	52.63
671.8	53.20
672.0	53.22
672.2	52.45
672.4	51.88
672.6	51.45
672.8	52.13
673.0	52.82
673.2	52.00
673.4	50.98
673.6	49.75
673.8	48.70
674.0	48.80
674.2	47.98
674.4	48.58
674.6	48.71
674.8	48.28
675.0	49.10
675.2	49.21
675.4	48.16
675.6	48.98
675.8	48.23
676.0	47.59
676.2	48.35
676.4	48.18
676.6	46.99
676.8	46.69
677.0	45.39
677.2	44.10
677.4	44.26
677.6	45.34
677.8	45.02
678.0	44.28
678.2	43.01
678.4	41.34
678.6	41.24
678.8	42.90
679.0	43.43
679.2	42.60
679.4	42.18
679.6	40.73
679.8	39.63
680.0	39.55

