Sample:	'20211010A(EM)
File name:	B-CDS 8 800.FDS
Run date:	'14:29:04, 06/08/2023
Operator:	Administrator
Comment:	'

Instrument
Model:	F-4700 FL Spectrophotometer
Serial number:	2019-001
ROM Version:	5J24010 00

Instrument parameters
Measurement type:	Wavelength scan
Scan mode:	Emission
Data mode:	Fluorescence
EX WL:	350.0 nm
EM  Start WL:	370.0 nm
EM  End WL:	680.0 nm
Scan speed:	1200 nm/min
Delay:	0.0 s
EX Slit:	10.0 nm
EM Slit:	10.0 nm
PMT Voltage:	550 V
Response:	0.002 s
Corrected spectra:	Off
Shutter control:	On

Processing performed
Savitsky-Golay smoothed
Smoothing order:	3
Number of points:	7
Number of times:	1

Peak integration
Integration method:	Rectangular
Sensitivity:	1
Threshold:	1.000

Peaks
No.	Start(nm)	Apex(nm)	End(nm)	Height(Data)	Valley(nm)	Valley(Data)
1	370.0	374.2	375.8	15.01	375.8	12.07
2	375.8	381.2	382.2	17.97	382.2	16.10
3	382.2	383.0	383.8	20.25	383.8	17.90
4	383.8	473.6	474.4	8868	474.4	8785
5	474.4	476.6	477.4	8872	477.4	8829
6	477.4	478.6	676.6	8875	676.6	70.59
7	676.6	677.4	680.0	74.39	680.0	65.73

Data points
nm	Data
370.0	11.06
370.2	13.20
370.4	13.91
370.6	13.66
370.8	12.88
371.0	12.42
371.2	12.55
371.4	12.63
371.6	13.05
371.8	12.87
372.0	12.03
372.2	12.14
372.4	12.01
372.6	11.88
372.8	12.57
373.0	13.57
373.2	13.13
373.4	13.56
373.6	13.58
373.8	14.13
374.0	14.70
374.2	15.01
374.4	13.80
374.6	13.70
374.8	14.01
375.0	14.79
375.2	14.22
375.4	13.11
375.6	12.44
375.8	12.07
376.0	12.95
376.2	14.07
376.4	14.10
376.6	13.95
376.8	14.52
377.0	14.48
377.2	14.50
377.4	14.95
377.6	15.03
377.8	15.35
378.0	15.09
378.2	15.38
378.4	14.67
378.6	14.81
378.8	14.99
379.0	14.92
379.2	14.75
379.4	15.07
379.6	15.43
379.8	15.40
380.0	15.52
380.2	14.90
380.4	15.51
380.6	16.57
380.8	17.74
381.0	17.90
381.2	17.97
381.4	17.08
381.6	17.33
381.8	17.20
382.0	16.25
382.2	16.10
382.4	17.48
382.6	18.62
382.8	20.11
383.0	20.25
383.2	19.05
383.4	18.10
383.6	18.05
383.8	17.90
384.0	18.33
384.2	18.91
384.4	19.83
384.6	20.49
384.8	21.62
385.0	21.80
385.2	21.82
385.4	21.52
385.6	21.92
385.8	22.44
386.0	24.36
386.2	24.96
386.4	25.88
386.6	25.49
386.8	25.45
387.0	25.76
387.2	26.79
387.4	27.33
387.6	28.52
387.8	28.75
388.0	28.79
388.2	30.00
388.4	30.83
388.6	32.18
388.8	32.57
389.0	33.07
389.2	33.60
389.4	35.28
389.6	36.76
389.8	37.77
390.0	37.85
390.2	38.84
390.4	40.63
390.6	42.32
390.8	43.22
391.0	43.55
391.2	44.60
391.4	46.30
391.6	47.08
391.8	46.82
392.0	47.16
392.2	49.42
392.4	52.23
392.6	56.02
392.8	58.91
393.0	61.69
393.2	63.02
393.4	64.31
393.6	65.31
393.8	66.73
394.0	68.06
394.2	70.51
394.4	72.67
394.6	75.67
394.8	79.12
395.0	81.41
395.2	83.09
395.4	85.94
395.6	89.87
395.8	94.62
396.0	97.45
396.2	99.23
396.4	101.6
396.6	103.9
396.8	107.9
397.0	114.1
397.2	117.4
397.4	121.6
397.6	124.2
397.8	128.8
398.0	133.8
398.2	140.8
398.4	147.8
398.6	153.5
398.8	157.9
399.0	164.4
399.2	169.3
399.4	175.0
399.6	180.0
399.8	184.4
400.0	187.6
400.2	193.1
400.4	204.3
400.6	214.3
400.8	225.1
401.0	234.8
401.2	240.5
401.4	245.9
401.6	252.2
401.8	257.2
402.0	266.9
402.2	277.0
402.4	289.6
402.6	298.7
402.8	307.4
403.0	319.4
403.2	326.1
403.4	336.0
403.6	347.7
403.8	359.1
404.0	369.7
404.2	386.1
404.4	394.7
404.6	404.6
404.8	415.4
405.0	428.3
405.2	445.6
405.4	465.4
405.6	482.6
405.8	494.2
406.0	502.5
406.2	510.2
406.4	527.6
406.6	545.6
406.8	567.7
407.0	589.4
407.2	610.4
407.4	622.7
407.6	635.2
407.8	648.9
408.0	663.5
408.2	682.2
408.4	706.4
408.6	725.1
408.8	744.1
409.0	763.6
409.2	784.5
409.4	804.0
409.6	827.7
409.8	853.4
410.0	871.7
410.2	896.2
410.4	927.6
410.6	947.6
410.8	971.2
411.0	995.3
411.2	1016
411.4	1044
411.6	1078
411.8	1107
412.0	1130
412.2	1154
412.4	1183
412.6	1209
412.8	1236
413.0	1266
413.2	1290
413.4	1319
413.6	1349
413.8	1373
414.0	1396
414.2	1428
414.4	1464
414.6	1500
414.8	1533
415.0	1564
415.2	1596
415.4	1638
415.6	1670
415.8	1702
416.0	1730
416.2	1764
416.4	1803
416.6	1843
416.8	1876
417.0	1905
417.2	1927
417.4	1963
417.6	2006
417.8	2048
418.0	2092
418.2	2137
418.4	2169
418.6	2201
418.8	2230
419.0	2269
419.2	2308
419.4	2356
419.6	2400
419.8	2436
420.0	2475
420.2	2518
420.4	2559
420.6	2600
420.8	2638
421.0	2682
421.2	2731
421.4	2772
421.6	2812
421.8	2838
422.0	2859
422.2	2904
422.4	2949
422.6	2998
422.8	3040
423.0	3076
423.2	3117
423.4	3162
423.6	3212
423.8	3264
424.0	3297
424.2	3332
424.4	3367
424.6	3410
424.8	3462
425.0	3517
425.2	3550
425.4	3585
425.6	3613
425.8	3656
426.0	3702
426.2	3755
426.4	3799
426.6	3854
426.8	3890
427.0	3925
427.2	3969
427.4	4004
427.6	4042
427.8	4084
428.0	4137
428.2	4186
428.4	4238
428.6	4275
428.8	4289
429.0	4313
429.2	4366
429.4	4413
429.6	4463
429.8	4508
430.0	4544
430.2	4593
430.4	4638
430.6	4677
430.8	4709
431.0	4732
431.2	4782
431.4	4837
431.6	4891
431.8	4931
432.0	4961
432.2	4973
432.4	5000
432.6	5030
432.8	5082
433.0	5122
433.2	5170
433.4	5184
433.6	5207
433.8	5238
434.0	5294
434.2	5339
434.4	5385
434.6	5402
434.8	5419
435.0	5461
435.2	5507
435.4	5547
435.6	5572
435.8	5599
436.0	5626
436.2	5672
436.4	5713
436.6	5765
436.8	5796
437.0	5827
437.2	5847
437.4	5869
437.6	5866
437.8	5896
438.0	5937
438.2	5973
438.4	6008
438.6	6057
438.8	6074
439.0	6111
439.2	6142
439.4	6171
439.6	6201
439.8	6240
440.0	6278
440.2	6299
440.4	6337
440.6	6367
440.8	6384
441.0	6386
441.2	6409
441.4	6420
441.6	6456
441.8	6489
442.0	6531
442.2	6561
442.4	6600
442.6	6614
442.8	6628
443.0	6647
443.2	6667
443.4	6695
443.6	6714
443.8	6749
444.0	6771
444.2	6800
444.4	6806
444.6	6823
444.8	6849
445.0	6899
445.2	6931
445.4	6964
445.6	6982
445.8	7004
446.0	7019
446.2	7048
446.4	7074
446.6	7079
446.8	7093
447.0	7107
447.2	7105
447.4	7141
447.6	7163
447.8	7188
448.0	7213
448.2	7235
448.4	7261
448.6	7294
448.8	7316
449.0	7348
449.2	7365
449.4	7360
449.6	7370
449.8	7369
450.0	7389
450.2	7421
450.4	7460
450.6	7459
450.8	7461
451.0	7461
451.2	7492
451.4	7514
451.6	7529
451.8	7528
452.0	7551
452.2	7573
452.4	7627
452.6	7642
452.8	7651
453.0	7660
453.2	7680
453.4	7700
453.6	7726
453.8	7724
454.0	7743
454.2	7763
454.4	7768
454.6	7793
454.8	7806
455.0	7812
455.2	7843
455.4	7880
455.6	7910
455.8	7951
456.0	7985
456.2	8000
456.4	8012
456.6	8030
456.8	8043
457.0	8039
457.2	8058
457.4	8086
457.6	8113
457.8	8137
458.0	8157
458.2	8162
458.4	8173
458.6	8194
458.8	8224
459.0	8224
459.2	8223
459.4	8260
459.6	8263
459.8	8283
460.0	8305
460.2	8315
460.4	8325
460.6	8359
460.8	8360
461.0	8375
461.2	8391
461.4	8406
461.6	8439
461.8	8457
462.0	8468
462.2	8479
462.4	8490
462.6	8500
462.8	8521
463.0	8527
463.2	8538
463.4	8548
463.6	8544
463.8	8556
464.0	8573
464.2	8575
464.4	8588
464.6	8584
464.8	8571
465.0	8575
465.2	8605
465.4	8615
465.6	8637
465.8	8622
466.0	8612
466.2	8634
466.4	8676
466.6	8679
466.8	8690
467.0	8689
467.2	8683
467.4	8699
467.6	8715
467.8	8703
468.0	8722
468.2	8719
468.4	8717
468.6	8724
468.8	8713
469.0	8713
469.2	8750
469.4	8755
469.6	8788
469.8	8804
470.0	8787
470.2	8783
470.4	8783
470.6	8783
470.8	8789
471.0	8797
471.2	8798
471.4	8818
471.6	8831
471.8	8824
472.0	8809
472.2	8813
472.4	8808
472.6	8799
472.8	8826
473.0	8833
473.2	8843
473.4	8859
473.6	8868
473.8	8835
474.0	8831
474.2	8797
474.4	8785
474.6	8802
474.8	8829
475.0	8826
475.2	8835
475.4	8831
475.6	8843
475.8	8857
476.0	8865
476.2	8850
476.4	8865
476.6	8872
476.8	8869
477.0	8857
477.2	8839
477.4	8829
477.6	8829
477.8	8836
478.0	8854
478.2	8867
478.4	8869
478.6	8875
478.8	8851
479.0	8831
479.2	8823
479.4	8818
479.6	8826
479.8	8836
480.0	8848
480.2	8834
480.4	8837
480.6	8815
480.8	8815
481.0	8805
481.2	8813
481.4	8797
481.6	8796
481.8	8780
482.0	8786
482.2	8786
482.4	8807
482.6	8803
482.8	8784
483.0	8758
483.2	8748
483.4	8739
483.6	8742
483.8	8740
484.0	8745
484.2	8740
484.4	8752
484.6	8745
484.8	8736
485.0	8739
485.2	8750
485.4	8734
485.6	8729
485.8	8722
486.0	8704
486.2	8687
486.4	8689
486.6	8667
486.8	8662
487.0	8676
487.2	8662
487.4	8672
487.6	8674
487.8	8655
488.0	8652
488.2	8650
488.4	8627
488.6	8614
488.8	8583
489.0	8568
489.2	8563
489.4	8584
489.6	8563
489.8	8535
490.0	8516
490.2	8515
490.4	8493
490.6	8497
490.8	8474
491.0	8456
491.2	8431
491.4	8416
491.6	8391
491.8	8390
492.0	8399
492.2	8409
492.4	8406
492.6	8397
492.8	8362
493.0	8351
493.2	8333
493.4	8311
493.6	8301
493.8	8308
494.0	8282
494.2	8270
494.4	8253
494.6	8241
494.8	8221
495.0	8212
495.2	8158
495.4	8132
495.6	8106
495.8	8103
496.0	8081
496.2	8088
496.4	8065
496.6	8062
496.8	8043
497.0	8008
497.2	7976
497.4	7966
497.6	7941
497.8	7917
498.0	7903
498.2	7882
498.4	7882
498.6	7876
498.8	7868
499.0	7841
499.2	7817
499.4	7785
499.6	7765
499.8	7735
500.0	7728
500.2	7713
500.4	7694
500.6	7665
500.8	7651
501.0	7611
501.2	7587
501.4	7573
501.6	7564
501.8	7550
502.0	7535
502.2	7508
502.4	7484
502.6	7476
502.8	7469
503.0	7450
503.2	7421
503.4	7392
503.6	7370
503.8	7359
504.0	7342
504.2	7324
504.4	7292
504.6	7258
504.8	7215
505.0	7184
505.2	7181
505.4	7160
505.6	7138
505.8	7127
506.0	7097
506.2	7080
506.4	7075
506.6	7042
506.8	7013
507.0	6992
507.2	6973
507.4	6939
507.6	6913
507.8	6894
508.0	6877
508.2	6863
508.4	6832
508.6	6790
508.8	6768
509.0	6762
509.2	6758
509.4	6752
509.6	6698
509.8	6647
510.0	6623
510.2	6610
510.4	6599
510.6	6590
510.8	6544
511.0	6504
511.2	6483
511.4	6469
511.6	6463
511.8	6444
512.0	6403
512.2	6365
512.4	6347
512.6	6317
512.8	6293
513.0	6284
513.2	6259
513.4	6244
513.6	6249
513.8	6225
514.0	6197
514.2	6184
514.4	6133
514.6	6090
514.8	6061
515.0	6044
515.2	6035
515.4	6036
515.6	6017
515.8	5999
516.0	5960
516.2	5920
516.4	5881
516.6	5863
516.8	5849
517.0	5840
517.2	5810
517.4	5783
517.6	5750
517.8	5734
518.0	5714
518.2	5719
518.4	5702
518.6	5674
518.8	5640
519.0	5620
519.2	5602
519.4	5597
519.6	5569
519.8	5537
520.0	5506
520.2	5497
520.4	5478
520.6	5466
520.8	5454
521.0	5436
521.2	5405
521.4	5376
521.6	5331
521.8	5308
522.0	5286
522.2	5279
522.4	5282
522.6	5271
522.8	5245
523.0	5211
523.2	5166
523.4	5143
523.6	5135
523.8	5117
524.0	5094
524.2	5080
524.4	5073
524.6	5061
524.8	5048
525.0	5023
525.2	4987
525.4	4968
525.6	4938
525.8	4910
526.0	4889
526.2	4881
526.4	4866
526.6	4850
526.8	4824
527.0	4803
527.2	4790
527.4	4775
527.6	4756
527.8	4727
528.0	4710
528.2	4695
528.4	4685
528.6	4655
528.8	4620
529.0	4592
529.2	4574
529.4	4562
529.6	4553
529.8	4543
530.0	4517
530.2	4495
530.4	4478
530.6	4465
530.8	4440
531.0	4424
531.2	4399
531.4	4373
531.6	4354
531.8	4343
532.0	4330
532.2	4328
532.4	4329
532.6	4314
532.8	4286
533.0	4254
533.2	4224
533.4	4204
533.6	4193
533.8	4171
534.0	4144
534.2	4124
534.4	4106
534.6	4090
534.8	4062
535.0	4054
535.2	4036
535.4	4030
535.6	4026
535.8	4009
536.0	3982
536.2	3984
536.4	3967
536.6	3940
536.8	3915
537.0	3890
537.2	3875
537.4	3872
537.6	3857
537.8	3825
538.0	3796
538.2	3773
538.4	3757
538.6	3750
538.8	3741
539.0	3729
539.2	3708
539.4	3692
539.6	3671
539.8	3649
540.0	3623
540.2	3611
540.4	3598
540.6	3598
540.8	3587
541.0	3562
541.2	3532
541.4	3509
541.6	3487
541.8	3487
542.0	3479
542.2	3470
542.4	3453
542.6	3426
542.8	3404
543.0	3400
543.2	3376
543.4	3374
543.6	3355
543.8	3342
544.0	3331
544.2	3320
544.4	3295
544.6	3287
544.8	3249
545.0	3226
545.2	3218
545.4	3212
545.6	3208
545.8	3206
546.0	3173
546.2	3143
546.4	3134
546.6	3114
546.8	3105
547.0	3094
547.2	3071
547.4	3053
547.6	3037
547.8	3023
548.0	3018
548.2	3001
548.4	2982
548.6	2970
548.8	2956
549.0	2944
549.2	2924
549.4	2897
549.6	2879
549.8	2869
550.0	2855
550.2	2844
550.4	2835
550.6	2828
550.8	2822
551.0	2810
551.2	2773
551.4	2763
551.6	2746
551.8	2736
552.0	2721
552.2	2708
552.4	2683
552.6	2682
552.8	2664
553.0	2651
553.2	2634
553.4	2622
553.6	2604
553.8	2592
554.0	2578
554.2	2570
554.4	2557
554.6	2545
554.8	2522
555.0	2507
555.2	2491
555.4	2482
555.6	2475
555.8	2466
556.0	2450
556.2	2440
556.4	2430
556.6	2416
556.8	2410
557.0	2398
557.2	2385
557.4	2376
557.6	2368
557.8	2349
558.0	2338
558.2	2324
558.4	2312
558.6	2301
558.8	2286
559.0	2266
559.2	2260
559.4	2245
559.6	2230
559.8	2217
560.0	2202
560.2	2191
560.4	2187
560.6	2176
560.8	2167
561.0	2161
561.2	2148
561.4	2137
561.6	2128
561.8	2114
562.0	2102
562.2	2093
562.4	2084
562.6	2074
562.8	2070
563.0	2052
563.2	2034
563.4	2024
563.6	2018
563.8	2005
564.0	1999
564.2	1988
564.4	1983
564.6	1981
564.8	1971
565.0	1956
565.2	1940
565.4	1926
565.6	1912
565.8	1901
566.0	1889
566.2	1882
566.4	1878
566.6	1871
566.8	1851
567.0	1839
567.2	1828
567.4	1820
567.6	1813
567.8	1807
568.0	1799
568.2	1796
568.4	1795
568.6	1788
568.8	1766
569.0	1749
569.2	1737
569.4	1736
569.6	1738
569.8	1728
570.0	1709
570.2	1698
570.4	1686
570.6	1682
570.8	1678
571.0	1668
571.2	1656
571.4	1648
571.6	1629
571.8	1621
572.0	1620
572.2	1620
572.4	1616
572.6	1606
572.8	1587
573.0	1583
573.2	1574
573.4	1566
573.6	1552
573.8	1539
574.0	1530
574.2	1531
574.4	1527
574.6	1522
574.8	1510
575.0	1503
575.2	1499
575.4	1489
575.6	1479
575.8	1468
576.0	1453
576.2	1447
576.4	1448
576.6	1438
576.8	1430
577.0	1422
577.2	1407
577.4	1397
577.6	1390
577.8	1386
578.0	1384
578.2	1386
578.4	1385
578.6	1381
578.8	1370
579.0	1363
579.2	1357
579.4	1349
579.6	1343
579.8	1330
580.0	1318
580.2	1306
580.4	1302
580.6	1294
580.8	1295
581.0	1287
581.2	1282
581.4	1271
581.6	1265
581.8	1255
582.0	1248
582.2	1237
582.4	1232
582.6	1221
582.8	1214
583.0	1214
583.2	1210
583.4	1203
583.6	1197
583.8	1189
584.0	1182
584.2	1172
584.4	1170
584.6	1157
584.8	1154
585.0	1150
585.2	1144
585.4	1138
585.6	1139
585.8	1126
586.0	1118
586.2	1110
586.4	1103
586.6	1103
586.8	1103
587.0	1097
587.2	1090
587.4	1086
587.6	1081
587.8	1075
588.0	1066
588.2	1052
588.4	1040
588.6	1039
588.8	1041
589.0	1045
589.2	1040
589.4	1026
589.6	1010
589.8	1003
590.0	1004
590.2	1002
590.4	999.0
590.6	992.3
590.8	984.8
591.0	977.1
591.2	976.8
591.4	969.8
591.6	963.2
591.8	952.5
592.0	950.9
592.2	946.9
592.4	948.8
592.6	946.9
592.8	941.2
593.0	933.7
593.2	925.7
593.4	914.5
593.6	907.8
593.8	898.0
594.0	886.7
594.2	882.0
594.4	875.9
594.6	876.2
594.8	879.6
595.0	873.6
595.2	866.3
595.4	857.7
595.6	853.4
595.8	856.0
596.0	854.1
596.2	846.2
596.4	844.5
596.6	835.7
596.8	832.4
597.0	835.3
597.2	827.6
597.4	816.2
597.6	807.1
597.8	799.7
598.0	796.9
598.2	801.1
598.4	801.4
598.6	798.6
598.8	789.1
599.0	783.5
599.2	775.5
599.4	767.2
599.6	769.3
599.8	770.6
600.0	768.2
600.2	763.0
600.4	755.6
600.6	743.0
600.8	740.5
601.0	738.1
601.2	734.5
601.4	732.8
601.6	730.2
601.8	724.2
602.0	719.6
602.2	716.8
602.4	707.8
602.6	706.2
602.8	700.7
603.0	695.9
603.2	694.4
603.4	693.4
603.6	687.9
603.8	682.8
604.0	678.5
604.2	672.3
604.4	673.2
604.6	670.8
604.8	669.1
605.0	665.1
605.2	661.4
605.4	655.8
605.6	653.0
605.8	647.9
606.0	642.7
606.2	641.6
606.4	633.4
606.6	629.5
606.8	628.8
607.0	623.7
607.2	621.0
607.4	624.4
607.6	618.5
607.8	611.6
608.0	611.0
608.2	600.6
608.4	598.6
608.6	599.6
608.8	595.7
609.0	592.2
609.2	590.8
609.4	584.7
609.6	583.6
609.8	580.8
610.0	576.1
610.2	575.3
610.4	571.5
610.6	563.9
610.8	558.2
611.0	551.3
611.2	551.2
611.4	554.6
611.6	553.3
611.8	550.2
612.0	545.9
612.2	539.8
612.4	537.9
612.6	536.5
612.8	531.8
613.0	528.8
613.2	523.4
613.4	520.7
613.6	520.4
613.8	517.6
614.0	517.5
614.2	511.1
614.4	503.1
614.6	496.8
614.8	492.8
615.0	489.1
615.2	492.0
615.4	493.7
615.6	494.2
615.8	488.7
616.0	483.1
616.2	475.8
616.4	472.3
616.6	470.0
616.8	471.2
617.0	470.8
617.2	466.4
617.4	459.6
617.6	451.9
617.8	448.1
618.0	451.5
618.2	456.4
618.4	452.5
618.6	448.0
618.8	442.5
619.0	442.1
619.2	442.5
619.4	440.0
619.6	434.3
619.8	431.0
620.0	429.4
620.2	426.7
620.4	422.1
620.6	418.5
620.8	413.6
621.0	410.7
621.2	410.3
621.4	410.7
621.6	407.8
621.8	407.1
622.0	404.8
622.2	399.9
622.4	398.9
622.6	395.9
622.8	389.1
623.0	387.2
623.2	386.3
623.4	387.8
623.6	387.6
623.8	384.6
624.0	381.2
624.2	377.3
624.4	373.5
624.6	373.6
624.8	370.5
625.0	370.4
625.2	368.7
625.4	365.4
625.6	363.2
625.8	357.4
626.0	351.5
626.2	349.5
626.4	348.1
626.6	348.9
626.8	347.4
627.0	342.7
627.2	339.1
627.4	339.8
627.6	338.4
627.8	337.5
628.0	334.4
628.2	329.8
628.4	329.7
628.6	328.2
628.8	324.9
629.0	323.5
629.2	323.1
629.4	321.1
629.6	320.9
629.8	319.5
630.0	318.6
630.2	313.7
630.4	311.1
630.6	308.2
630.8	307.9
631.0	307.6
631.2	306.7
631.4	306.2
631.6	305.6
631.8	304.8
632.0	303.3
632.2	298.3
632.4	293.7
632.6	292.3
632.8	292.8
633.0	292.0
633.2	289.6
633.4	287.4
633.6	283.3
633.8	279.5
634.0	278.7
634.2	278.0
634.4	278.7
634.6	280.3
634.8	275.7
635.0	273.3
635.2	270.3
635.4	267.1
635.6	266.6
635.8	265.6
636.0	261.4
636.2	259.7
636.4	259.1
636.6	257.1
636.8	252.6
637.0	250.6
637.2	247.4
637.4	247.4
637.6	248.4
637.8	248.3
638.0	248.3
638.2	249.2
638.4	244.7
638.6	241.5
638.8	235.8
639.0	232.4
639.2	233.0
639.4	232.2
639.6	230.7
639.8	229.7
640.0	227.4
640.2	225.5
640.4	224.5
640.6	221.7
640.8	220.2
641.0	218.5
641.2	219.0
641.4	218.9
641.6	220.1
641.8	218.1
642.0	218.1
642.2	218.6
642.4	218.9
642.6	216.6
642.8	215.5
643.0	213.0
643.2	210.4
643.4	210.5
643.6	209.0
643.8	203.9
644.0	201.1
644.2	200.2
644.4	198.3
644.6	197.7
644.8	200.8
645.0	196.7
645.2	193.2
645.4	193.3
645.6	192.2
645.8	191.1
646.0	193.3
646.2	192.1
646.4	190.5
646.6	188.6
646.8	185.6
647.0	179.6
647.2	175.8
647.4	176.1
647.6	176.5
647.8	176.0
648.0	176.7
648.2	173.4
648.4	172.4
648.6	175.6
648.8	176.9
649.0	174.6
649.2	171.4
649.4	168.5
649.6	168.3
649.8	171.4
650.0	170.8
650.2	169.6
650.4	166.9
650.6	164.2
650.8	164.5
651.0	162.8
651.2	159.5
651.4	159.4
651.6	158.8
651.8	157.4
652.0	159.3
652.2	159.1
652.4	159.8
652.6	160.1
652.8	157.0
653.0	154.3
653.2	151.4
653.4	150.2
653.6	151.0
653.8	152.3
654.0	150.5
654.2	150.2
654.4	148.2
654.6	145.8
654.8	144.5
655.0	144.2
655.2	142.8
655.4	141.4
655.6	140.1
655.8	138.4
656.0	138.5
656.2	139.9
656.4	139.9
656.6	138.8
656.8	138.6
657.0	137.8
657.2	137.4
657.4	136.5
657.6	134.0
657.8	132.7
658.0	131.3
658.2	129.7
658.4	129.4
658.6	129.2
658.8	128.2
659.0	128.3
659.2	125.8
659.4	124.3
659.6	122.7
659.8	121.7
660.0	122.0
660.2	122.1
660.4	122.0
660.6	121.4
660.8	120.6
661.0	118.1
661.2	116.9
661.4	115.4
661.6	115.9
661.8	116.6
662.0	118.4
662.2	118.0
662.4	117.6
662.6	116.1
662.8	114.4
663.0	112.5
663.2	111.4
663.4	110.2
663.6	110.2
663.8	110.0
664.0	109.8
664.2	109.4
664.4	108.0
664.6	106.8
664.8	105.7
665.0	104.7
665.2	103.3
665.4	102.0
665.6	100.2
665.8	101.1
666.0	101.0
666.2	99.63
666.4	98.72
666.6	98.50
666.8	98.45
667.0	101.0
667.2	100.2
667.4	97.54
667.6	96.82
667.8	96.61
668.0	94.68
668.2	94.89
668.4	94.62
668.6	94.80
668.8	96.49
669.0	95.45
669.2	93.65
669.4	90.47
669.6	89.29
669.8	89.17
670.0	90.85
670.2	91.04
670.4	91.27
670.6	90.80
670.8	88.95
671.0	86.49
671.2	85.61
671.4	84.61
671.6	84.77
671.8	86.75
672.0	85.67
672.2	84.11
672.4	83.26
672.6	82.34
672.8	82.70
673.0	83.24
673.2	82.66
673.4	82.70
673.6	82.42
673.8	82.75
674.0	80.65
674.2	79.04
674.4	77.53
674.6	77.58
674.8	78.32
675.0	78.98
675.2	77.50
675.4	75.03
675.6	73.85
675.8	73.91
676.0	72.86
676.2	73.02
676.4	72.18
676.6	70.59
676.8	70.74
677.0	72.13
677.2	72.85
677.4	74.39
677.6	74.20
677.8	72.43
678.0	70.19
678.2	68.80
678.4	68.37
678.6	67.86
678.8	68.93
679.0	68.80
679.2	66.97
679.4	65.68
679.6	63.79
679.8	63.40
680.0	65.73

