Sample:	'20211010A(EM)
File name:	B-CDS 9 900uM.FDS
Run date:	'14:36:45, 06/08/2023
Operator:	Administrator
Comment:	'

Instrument
Model:	F-4700 FL Spectrophotometer
Serial number:	2019-001
ROM Version:	5J24010 00

Instrument parameters
Measurement type:	Wavelength scan
Scan mode:	Emission
Data mode:	Fluorescence
EX WL:	350.0 nm
EM  Start WL:	370.0 nm
EM  End WL:	680.0 nm
Scan speed:	1200 nm/min
Delay:	0.0 s
EX Slit:	10.0 nm
EM Slit:	10.0 nm
PMT Voltage:	515 V
Response:	0.002 s
Corrected spectra:	Off
Shutter control:	On

Processing performed
Savitsky-Golay smoothed
Smoothing order:	3
Number of points:	7
Number of times:	1

Peak integration
Integration method:	Rectangular
Sensitivity:	1
Threshold:	1.000

Peaks
No.	Start(nm)	Apex(nm)	End(nm)	Height(Data)	Valley(nm)	Valley(Data)
1	370.0	372.0	373.8	13.04	373.8	11.97
2	373.8	374.2	375.0	13.84	375.0	12.13
3	375.0	377.0	377.8	15.03	377.8	13.42
4	377.8	465.4	466.4	9344	466.4	9307
5	466.4	467.2	468.0	9331	468.0	9299
6	468.0	468.4	472.2	9330	472.2	9234
7	472.2	472.8	680.0	9283	680.0	67.21

Data points
nm	Data
370.0	11.61
370.2	12.39
370.4	12.32
370.6	11.86
370.8	11.85
371.0	11.72
371.2	11.97
371.4	12.39
371.6	12.30
371.8	12.45
372.0	13.04
372.2	12.59
372.4	12.74
372.6	12.29
372.8	12.07
373.0	12.38
373.2	12.62
373.4	12.32
373.6	12.36
373.8	11.97
374.0	12.91
374.2	13.84
374.4	13.74
374.6	13.77
374.8	13.09
375.0	12.13
375.2	12.75
375.4	13.44
375.6	13.71
375.8	14.03
376.0	13.46
376.2	12.85
376.4	12.86
376.6	13.52
376.8	14.34
377.0	15.03
377.2	14.40
377.4	13.97
377.6	13.50
377.8	13.42
378.0	13.88
378.2	13.93
378.4	13.47
378.6	13.94
378.8	13.90
379.0	13.61
379.2	13.98
379.4	13.55
379.6	13.87
379.8	15.06
380.0	15.81
380.2	16.14
380.4	16.54
380.6	15.98
380.8	15.58
381.0	15.55
381.2	15.87
381.4	16.65
381.6	17.20
381.8	17.14
382.0	17.09
382.2	16.89
382.4	17.12
382.6	17.52
382.8	17.91
383.0	18.50
383.2	18.78
383.4	19.14
383.6	19.39
383.8	19.68
384.0	19.79
384.2	19.97
384.4	20.13
384.6	20.89
384.8	21.29
385.0	21.69
385.2	21.90
385.4	22.06
385.6	22.35
385.8	23.52
386.0	23.96
386.2	24.81
386.4	25.04
386.6	25.67
386.8	25.97
387.0	26.90
387.2	27.26
387.4	28.24
387.6	27.94
387.8	28.53
388.0	28.05
388.2	28.80
388.4	29.45
388.6	30.51
388.8	31.48
389.0	32.44
389.2	33.18
389.4	34.04
389.6	35.70
389.8	37.16
390.0	38.32
390.2	39.25
390.4	41.10
390.6	42.02
390.8	43.85
391.0	45.21
391.2	45.72
391.4	46.79
391.6	48.73
391.8	49.94
392.0	51.74
392.2	53.13
392.4	54.29
392.6	56.53
392.8	59.00
393.0	60.81
393.2	62.86
393.4	64.34
393.6	65.22
393.8	66.75
394.0	69.44
394.2	73.15
394.4	76.93
394.6	80.77
394.8	82.46
395.0	83.95
395.2	86.14
395.4	88.86
395.6	93.06
395.8	97.14
396.0	101.4
396.2	104.5
396.4	107.0
396.6	109.9
396.8	114.4
397.0	118.1
397.2	123.0
397.4	127.4
397.6	132.1
397.8	137.4
398.0	142.2
398.2	147.6
398.4	152.9
398.6	158.8
398.8	164.9
399.0	170.2
399.2	174.2
399.4	181.9
399.6	189.0
399.8	197.3
400.0	204.2
400.2	209.9
400.4	214.2
400.6	223.2
400.8	232.3
401.0	241.9
401.2	252.4
401.4	259.7
401.6	266.8
401.8	276.3
402.0	285.5
402.2	295.8
402.4	308.6
402.6	317.9
402.8	332.7
403.0	345.5
403.2	355.2
403.4	367.2
403.6	376.8
403.8	385.5
404.0	401.5
404.2	416.9
404.4	428.0
404.6	442.6
404.8	457.0
405.0	471.8
405.2	488.4
405.4	507.8
405.6	521.5
405.8	535.6
406.0	550.2
406.2	570.8
406.4	594.0
406.6	618.0
406.8	640.2
407.0	660.4
407.2	674.7
407.4	693.3
407.6	711.6
407.8	728.7
408.0	752.8
408.2	778.5
408.4	802.4
408.6	827.7
408.8	851.6
409.0	875.1
409.2	896.7
409.4	920.3
409.6	946.8
409.8	975.8
410.0	1006
410.2	1032
410.4	1059
410.6	1088
410.8	1120
411.0	1149
411.2	1175
411.4	1197
411.6	1231
411.8	1264
412.0	1297
412.2	1331
412.4	1360
412.6	1390
412.8	1429
413.0	1471
413.2	1503
413.4	1538
413.6	1569
413.8	1604
414.0	1643
414.2	1688
414.4	1725
414.6	1762
414.8	1799
415.0	1838
415.2	1874
415.4	1917
415.6	1959
415.8	2000
416.0	2050
416.2	2094
416.4	2134
416.6	2180
416.8	2227
417.0	2267
417.2	2314
417.4	2352
417.6	2387
417.8	2430
418.0	2472
418.2	2515
418.4	2559
418.6	2610
418.8	2661
419.0	2716
419.2	2764
419.4	2809
419.6	2854
419.8	2907
420.0	2960
420.2	3006
420.4	3054
420.6	3101
420.8	3151
421.0	3200
421.2	3256
421.4	3301
421.6	3350
421.8	3399
422.0	3451
422.2	3504
422.4	3556
422.6	3605
422.8	3654
423.0	3701
423.2	3748
423.4	3801
423.6	3851
423.8	3911
424.0	3966
424.2	4021
424.4	4065
424.6	4106
424.8	4148
425.0	4196
425.2	4240
425.4	4296
425.6	4346
425.8	4399
426.0	4447
426.2	4502
426.4	4549
426.6	4602
426.8	4654
427.0	4696
427.2	4733
427.4	4783
427.6	4833
427.8	4891
428.0	4958
428.2	5005
428.4	5045
428.6	5092
428.8	5141
429.0	5182
429.2	5240
429.4	5285
429.6	5320
429.8	5362
430.0	5422
430.2	5463
430.4	5522
430.6	5571
430.8	5608
431.0	5645
431.2	5694
431.4	5732
431.6	5783
431.8	5841
432.0	5887
432.2	5919
432.4	5960
432.6	6003
432.8	6050
433.0	6099
433.2	6143
433.4	6177
433.6	6214
433.8	6259
434.0	6294
434.2	6335
434.4	6373
434.6	6408
434.8	6437
435.0	6487
435.2	6534
435.4	6585
435.6	6634
435.8	6691
436.0	6735
436.2	6766
436.4	6781
436.6	6805
436.8	6834
437.0	6880
437.2	6921
437.4	6952
437.6	6988
437.8	7037
438.0	7061
438.2	7086
438.4	7120
438.6	7147
438.8	7192
439.0	7223
439.2	7226
439.4	7243
439.6	7272
439.8	7300
440.0	7345
440.2	7384
440.4	7400
440.6	7428
440.8	7455
441.0	7487
441.2	7534
441.4	7578
441.6	7582
441.8	7589
442.0	7601
442.2	7621
442.4	7677
442.6	7728
442.8	7740
443.0	7752
443.2	7758
443.4	7774
443.6	7811
443.8	7856
444.0	7866
444.2	7884
444.4	7900
444.6	7924
444.8	7955
445.0	7997
445.2	8020
445.4	8052
445.6	8077
445.8	8106
446.0	8119
446.2	8133
446.4	8149
446.6	8165
446.8	8184
447.0	8210
447.2	8227
447.4	8243
447.6	8259
447.8	8269
448.0	8291
448.2	8303
448.4	8317
448.6	8340
448.8	8361
449.0	8381
449.2	8399
449.4	8399
449.6	8416
449.8	8430
450.0	8452
450.2	8486
450.4	8493
450.6	8496
450.8	8522
451.0	8524
451.2	8556
451.4	8582
451.6	8587
451.8	8601
452.0	8605
452.2	8618
452.4	8648
452.6	8671
452.8	8679
453.0	8684
453.2	8680
453.4	8687
453.6	8715
453.8	8733
454.0	8744
454.2	8761
454.4	8773
454.6	8785
454.8	8811
455.0	8829
455.2	8844
455.4	8849
455.6	8852
455.8	8869
456.0	8885
456.2	8899
456.4	8905
456.6	8906
456.8	8917
457.0	8947
457.2	8976
457.4	8991
457.6	8996
457.8	9005
458.0	9010
458.2	9026
458.4	9039
458.6	9048
458.8	9055
459.0	9063
459.2	9081
459.4	9096
459.6	9100
459.8	9109
460.0	9109
460.2	9115
460.4	9133
460.6	9137
460.8	9143
461.0	9164
461.2	9159
461.4	9173
461.6	9176
461.8	9176
462.0	9181
462.2	9195
462.4	9191
462.6	9190
462.8	9194
463.0	9213
463.2	9254
463.4	9273
463.6	9280
463.8	9259
464.0	9245
464.2	9252
464.4	9277
464.6	9294
464.8	9317
465.0	9321
465.2	9330
465.4	9344
465.6	9335
465.8	9325
466.0	9321
466.2	9313
466.4	9307
466.6	9312
466.8	9317
467.0	9315
467.2	9331
467.4	9330
467.6	9316
467.8	9310
468.0	9299
468.2	9306
468.4	9330
468.6	9318
468.8	9317
469.0	9318
469.2	9300
469.4	9306
469.6	9313
469.8	9293
470.0	9295
470.2	9307
470.4	9295
470.6	9288
470.8	9285
471.0	9274
471.2	9288
471.4	9305
471.6	9305
471.8	9284
472.0	9256
472.2	9234
472.4	9244
472.6	9267
472.8	9283
473.0	9279
473.2	9276
473.4	9273
473.6	9267
473.8	9265
474.0	9248
474.2	9223
474.4	9206
474.6	9219
474.8	9209
475.0	9199
475.2	9190
475.4	9188
475.6	9186
475.8	9202
476.0	9196
476.2	9167
476.4	9156
476.6	9149
476.8	9153
477.0	9153
477.2	9151
477.4	9125
477.6	9110
477.8	9096
478.0	9085
478.2	9089
478.4	9090
478.6	9095
478.8	9091
479.0	9081
479.2	9066
479.4	9048
479.6	9033
479.8	9023
480.0	9016
480.2	9003
480.4	9006
480.6	8990
480.8	8991
481.0	8969
481.2	8954
481.4	8949
481.6	8949
481.8	8950
482.0	8963
482.2	8960
482.4	8946
482.6	8929
482.8	8913
483.0	8883
483.2	8868
483.4	8871
483.6	8882
483.8	8864
484.0	8851
484.2	8829
484.4	8808
484.6	8798
484.8	8805
485.0	8803
485.2	8806
485.4	8794
485.6	8771
485.8	8742
486.0	8718
486.2	8707
486.4	8708
486.6	8701
486.8	8693
487.0	8682
487.2	8659
487.4	8629
487.6	8623
487.8	8609
488.0	8604
488.2	8596
488.4	8586
488.6	8580
488.8	8565
489.0	8527
489.2	8521
489.4	8504
489.6	8503
489.8	8512
490.0	8500
490.2	8465
490.4	8447
490.6	8422
490.8	8396
491.0	8386
491.2	8378
491.4	8357
491.6	8340
491.8	8310
492.0	8281
492.2	8267
492.4	8254
492.6	8248
492.8	8235
493.0	8209
493.2	8198
493.4	8197
493.6	8184
493.8	8168
494.0	8137
494.2	8106
494.4	8068
494.6	8044
494.8	8024
495.0	8015
495.2	8006
495.4	8013
495.6	7998
495.8	7972
496.0	7957
496.2	7935
496.4	7910
496.6	7904
496.8	7893
497.0	7873
497.2	7848
497.4	7809
497.6	7767
497.8	7737
498.0	7704
498.2	7686
498.4	7670
498.6	7658
498.8	7646
499.0	7629
499.2	7598
499.4	7576
499.6	7543
499.8	7516
500.0	7504
500.2	7500
500.4	7488
500.6	7465
500.8	7423
501.0	7401
501.2	7380
501.4	7375
501.6	7350
501.8	7319
502.0	7284
502.2	7259
502.4	7231
502.6	7216
502.8	7185
503.0	7173
503.2	7157
503.4	7150
503.6	7125
503.8	7100
504.0	7058
504.2	7037
504.4	7011
504.6	6989
504.8	6954
505.0	6919
505.2	6885
505.4	6881
505.6	6860
505.8	6847
506.0	6827
506.2	6793
506.4	6770
506.6	6755
506.8	6724
507.0	6701
507.2	6681
507.4	6652
507.6	6636
507.8	6615
508.0	6597
508.2	6567
508.4	6542
508.6	6498
508.8	6472
509.0	6446
509.2	6425
509.4	6413
509.6	6395
509.8	6371
510.0	6354
510.2	6324
510.4	6299
510.6	6279
510.8	6255
511.0	6235
511.2	6212
511.4	6176
511.6	6161
511.8	6135
512.0	6110
512.2	6088
512.4	6058
512.6	6013
512.8	5999
513.0	5980
513.2	5973
513.4	5965
513.6	5947
513.8	5916
514.0	5894
514.2	5866
514.4	5844
514.6	5825
514.8	5795
515.0	5757
515.2	5727
515.4	5702
515.6	5686
515.8	5673
516.0	5639
516.2	5621
516.4	5606
516.6	5591
516.8	5570
517.0	5543
517.2	5517
517.4	5504
517.6	5483
517.8	5454
518.0	5419
518.2	5388
518.4	5374
518.6	5352
518.8	5337
519.0	5319
519.2	5298
519.4	5283
519.6	5263
519.8	5227
520.0	5205
520.2	5192
520.4	5169
520.6	5158
520.8	5137
521.0	5095
521.2	5067
521.4	5052
521.6	5027
521.8	5018
522.0	4996
522.2	4981
522.4	4970
522.6	4951
522.8	4924
523.0	4897
523.2	4859
523.4	4839
523.6	4825
523.8	4804
524.0	4788
524.2	4762
524.4	4734
524.6	4715
524.8	4708
525.0	4692
525.2	4683
525.4	4663
525.6	4635
525.8	4616
526.0	4602
526.2	4581
526.4	4561
526.6	4542
526.8	4522
527.0	4504
527.2	4490
527.4	4472
527.6	4440
527.8	4417
528.0	4396
528.2	4385
528.4	4368
528.6	4354
528.8	4336
529.0	4317
529.2	4299
529.4	4284
529.6	4263
529.8	4235
530.0	4216
530.2	4201
530.4	4185
530.6	4171
530.8	4154
531.0	4126
531.2	4108
531.4	4086
531.6	4065
531.8	4047
532.0	4033
532.2	4023
532.4	4019
532.6	3991
532.8	3967
533.0	3947
533.2	3932
533.4	3915
533.6	3899
533.8	3869
534.0	3849
534.2	3832
534.4	3819
534.6	3804
534.8	3791
535.0	3779
535.2	3769
535.4	3752
535.6	3736
535.8	3706
536.0	3688
536.2	3668
536.4	3657
536.6	3651
536.8	3641
537.0	3615
537.2	3597
537.4	3574
537.6	3556
537.8	3533
538.0	3522
538.2	3505
538.4	3497
538.6	3489
538.8	3474
539.0	3445
539.2	3433
539.4	3408
539.6	3394
539.8	3381
540.0	3361
540.2	3345
540.4	3334
540.6	3315
540.8	3301
541.0	3290
541.2	3274
541.4	3265
541.6	3252
541.8	3235
542.0	3220
542.2	3205
542.4	3194
542.6	3178
542.8	3163
543.0	3145
543.2	3133
543.4	3113
543.6	3100
543.8	3083
544.0	3067
544.2	3047
544.4	3030
544.6	3015
544.8	3003
545.0	2990
545.2	2979
545.4	2962
545.6	2942
545.8	2925
546.0	2918
546.2	2908
546.4	2903
546.6	2888
546.8	2865
547.0	2845
547.2	2837
547.4	2827
547.6	2816
547.8	2799
548.0	2786
548.2	2774
548.4	2767
548.6	2760
548.8	2745
549.0	2724
549.2	2714
549.4	2692
549.6	2676
549.8	2666
550.0	2658
550.2	2651
550.4	2649
550.6	2632
550.8	2611
551.0	2592
551.2	2574
551.4	2561
551.6	2552
551.8	2537
552.0	2528
552.2	2512
552.4	2498
552.6	2485
552.8	2475
553.0	2466
553.2	2455
553.4	2437
553.6	2427
553.8	2413
554.0	2404
554.2	2393
554.4	2379
554.6	2369
554.8	2363
555.0	2350
555.2	2337
555.4	2319
555.6	2310
555.8	2300
556.0	2288
556.2	2274
556.4	2259
556.6	2251
556.8	2247
557.0	2236
557.2	2224
557.4	2208
557.6	2193
557.8	2182
558.0	2174
558.2	2164
558.4	2158
558.6	2143
558.8	2133
559.0	2118
559.2	2103
559.4	2093
559.6	2081
559.8	2069
560.0	2056
560.2	2049
560.4	2038
560.6	2031
560.8	2024
561.0	2019
561.2	2004
561.4	1992
561.6	1981
561.8	1972
562.0	1969
562.2	1964
562.4	1948
562.6	1927
562.8	1911
563.0	1899
563.2	1894
563.4	1889
563.6	1879
563.8	1864
564.0	1857
564.2	1848
564.4	1845
564.6	1838
564.8	1831
565.0	1816
565.2	1807
565.4	1793
565.6	1789
565.8	1780
566.0	1773
566.2	1765
566.4	1755
566.6	1740
566.8	1733
567.0	1722
567.2	1708
567.4	1702
567.6	1696
567.8	1687
568.0	1683
568.2	1674
568.4	1664
568.6	1659
568.8	1652
569.0	1646
569.2	1641
569.4	1632
569.6	1625
569.8	1614
570.0	1605
570.2	1592
570.4	1581
570.6	1570
570.8	1562
571.0	1556
571.2	1550
571.4	1542
571.6	1534
571.8	1530
572.0	1523
572.2	1515
572.4	1503
572.6	1497
572.8	1491
573.0	1485
573.2	1474
573.4	1465
573.6	1454
573.8	1445
574.0	1445
574.2	1440
574.4	1435
574.6	1430
574.8	1425
575.0	1415
575.2	1408
575.4	1400
575.6	1389
575.8	1381
576.0	1370
576.2	1365
576.4	1361
576.6	1360
576.8	1356
577.0	1349
577.2	1333
577.4	1321
577.6	1317
577.8	1315
578.0	1313
578.2	1305
578.4	1299
578.6	1290
578.8	1281
579.0	1277
579.2	1269
579.4	1260
579.6	1253
579.8	1247
580.0	1242
580.2	1242
580.4	1243
580.6	1234
580.8	1224
581.0	1210
581.2	1203
581.4	1193
581.6	1192
581.8	1184
582.0	1180
582.2	1175
582.4	1169
582.6	1158
582.8	1156
583.0	1149
583.2	1144
583.4	1138
583.6	1131
583.8	1125
584.0	1127
584.2	1118
584.4	1107
584.6	1096
584.8	1091
585.0	1087
585.2	1088
585.4	1081
585.6	1076
585.8	1069
586.0	1062
586.2	1055
586.4	1047
586.6	1038
586.8	1036
587.0	1032
587.2	1029
587.4	1030
587.6	1020
587.8	1011
588.0	1007
588.2	1003
588.4	999.6
588.6	999.4
588.8	989.3
589.0	982.8
589.2	979.1
589.4	976.8
589.6	968.1
589.8	962.1
590.0	956.7
590.2	950.3
590.4	952.0
590.6	950.1
590.8	941.3
591.0	938.2
591.2	931.8
591.4	925.2
591.6	925.0
591.8	920.3
592.0	913.8
592.2	907.4
592.4	895.3
592.6	890.3
592.8	885.0
593.0	882.2
593.2	881.5
593.4	880.2
593.6	876.6
593.8	870.5
594.0	858.4
594.2	849.6
594.4	844.1
594.6	844.9
594.8	844.3
595.0	841.0
595.2	833.7
595.4	830.1
595.6	824.9
595.8	824.2
596.0	824.0
596.2	824.7
596.4	820.1
596.6	811.3
596.8	802.5
597.0	796.0
597.2	787.4
597.4	784.8
597.6	783.9
597.8	779.4
598.0	778.9
598.2	775.3
598.4	769.6
598.6	766.4
598.8	763.3
599.0	754.2
599.2	749.2
599.4	744.3
599.6	743.5
599.8	745.3
600.0	743.7
600.2	739.0
600.4	734.7
600.6	730.3
600.8	724.3
601.0	719.1
601.2	712.3
601.4	708.0
601.6	701.5
601.8	697.8
602.0	694.0
602.2	692.5
602.4	689.0
602.6	684.3
602.8	678.8
603.0	675.8
603.2	676.4
603.4	678.7
603.6	676.3
603.8	670.4
604.0	666.2
604.2	664.0
604.4	660.5
604.6	658.8
604.8	656.1
605.0	649.3
605.2	645.4
605.4	641.6
605.6	636.1
605.8	633.5
606.0	628.7
606.2	621.7
606.4	618.1
606.6	617.5
606.8	615.9
607.0	613.3
607.2	605.7
607.4	597.8
607.6	591.4
607.8	590.0
608.0	589.0
608.2	590.4
608.4	590.5
608.6	588.9
608.8	585.4
609.0	580.2
609.2	577.5
609.4	577.2
609.6	573.4
609.8	568.7
610.0	563.2
610.2	557.0
610.4	554.3
610.6	555.1
610.8	553.3
611.0	550.7
611.2	547.0
611.4	540.7
611.6	534.7
611.8	535.4
612.0	533.7
612.2	535.0
612.4	533.4
612.6	525.5
612.8	520.8
613.0	520.2
613.2	516.8
613.4	518.3
613.6	518.0
613.8	515.3
614.0	513.9
614.2	507.9
614.4	500.8
614.6	496.4
614.8	491.6
615.0	485.9
615.2	481.4
615.4	479.2
615.6	479.7
615.8	481.0
616.0	476.8
616.2	473.4
616.4	470.1
616.6	470.5
616.8	469.8
617.0	468.1
617.2	464.0
617.4	460.6
617.6	455.8
617.8	452.8
618.0	450.5
618.2	447.7
618.4	445.4
618.6	441.2
618.8	437.7
619.0	433.9
619.2	434.0
619.4	432.0
619.6	430.3
619.8	430.4
620.0	424.8
620.2	419.1
620.4	420.1
620.6	419.3
620.8	414.3
621.0	412.3
621.2	406.0
621.4	402.6
621.6	403.5
621.8	404.3
622.0	403.9
622.2	403.6
622.4	401.9
622.6	396.8
622.8	393.2
623.0	388.0
623.2	386.7
623.4	384.9
623.6	382.5
623.8	378.7
624.0	377.5
624.2	373.7
624.4	372.3
624.6	371.1
624.8	368.5
625.0	366.0
625.2	365.1
625.4	361.8
625.6	358.5
625.8	356.3
626.0	353.4
626.2	350.2
626.4	350.6
626.6	350.1
626.8	349.7
627.0	348.2
627.2	344.9
627.4	340.3
627.6	338.3
627.8	337.7
628.0	337.6
628.2	335.9
628.4	331.7
628.6	329.2
628.8	328.5
629.0	326.1
629.2	324.4
629.4	323.2
629.6	317.9
629.8	317.4
630.0	319.0
630.2	318.9
630.4	317.4
630.6	314.8
630.8	309.1
631.0	305.6
631.2	305.3
631.4	307.7
631.6	306.4
631.8	303.5
632.0	301.4
632.2	298.7
632.4	298.2
632.6	298.3
632.8	295.3
633.0	289.9
633.2	285.6
633.4	284.7
633.6	285.6
633.8	284.7
634.0	283.6
634.2	279.0
634.4	275.5
634.6	273.6
634.8	272.8
635.0	270.2
635.2	268.4
635.4	266.4
635.6	267.8
635.8	268.1
636.0	268.6
636.2	264.4
636.4	260.8
636.6	257.2
636.8	257.7
637.0	257.0
637.2	258.6
637.4	254.1
637.6	250.2
637.8	246.6
638.0	246.4
638.2	245.9
638.4	246.3
638.6	246.2
638.8	242.3
639.0	238.3
639.2	238.1
639.4	239.7
639.6	238.6
639.8	238.4
640.0	234.5
640.2	230.3
640.4	229.7
640.6	229.0
640.8	227.4
641.0	224.8
641.2	224.5
641.4	223.2
641.6	224.2
641.8	223.8
642.0	223.7
642.2	220.1
642.4	219.8
642.6	216.7
642.8	215.7
643.0	215.0
643.2	214.6
643.4	211.5
643.6	210.4
643.8	207.6
644.0	208.0
644.2	207.6
644.4	207.8
644.6	206.1
644.8	203.4
645.0	199.5
645.2	199.9
645.4	198.6
645.6	199.7
645.8	197.2
646.0	195.9
646.2	194.0
646.4	194.0
646.6	193.4
646.8	193.5
647.0	190.1
647.2	187.7
647.4	187.8
647.6	187.3
647.8	185.0
648.0	184.0
648.2	183.5
648.4	181.2
648.6	181.1
648.8	181.1
649.0	178.0
649.2	177.8
649.4	177.4
649.6	174.8
649.8	173.7
650.0	173.1
650.2	172.2
650.4	171.5
650.6	169.6
650.8	167.6
651.0	167.0
651.2	167.1
651.4	168.4
651.6	168.5
651.8	166.8
652.0	164.6
652.2	161.7
652.4	158.6
652.6	156.4
652.8	155.1
653.0	154.3
653.2	155.7
653.4	156.3
653.6	155.5
653.8	155.0
654.0	153.2
654.2	152.2
654.4	150.9
654.6	148.2
654.8	146.3
655.0	146.1
655.2	148.5
655.4	150.6
655.6	150.5
655.8	146.9
656.0	143.0
656.2	140.1
656.4	140.1
656.6	140.7
656.8	140.8
657.0	140.4
657.2	137.0
657.4	135.0
657.6	134.6
657.8	133.7
658.0	132.8
658.2	134.2
658.4	132.6
658.6	132.4
658.8	132.3
659.0	129.8
659.2	128.5
659.4	127.6
659.6	126.9
659.8	127.0
660.0	126.5
660.2	126.6
660.4	126.3
660.6	124.7
660.8	123.1
661.0	121.2
661.2	119.7
661.4	121.1
661.6	122.0
661.8	121.5
662.0	119.4
662.2	116.3
662.4	113.2
662.6	112.1
662.8	113.3
663.0	114.1
663.2	114.6
663.4	114.1
663.6	113.0
663.8	111.7
664.0	112.2
664.2	111.0
664.4	111.4
664.6	109.6
664.8	108.6
665.0	108.1
665.2	107.5
665.4	105.6
665.6	105.7
665.8	105.0
666.0	105.7
666.2	105.0
666.4	104.5
666.6	103.5
666.8	101.7
667.0	101.9
667.2	101.8
667.4	99.35
667.6	97.71
667.8	97.22
668.0	96.61
668.2	98.42
668.4	97.40
668.6	97.57
668.8	95.83
669.0	96.18
669.2	96.51
669.4	96.98
669.6	95.75
669.8	94.89
670.0	92.32
670.2	90.74
670.4	90.22
670.6	90.54
670.8	91.37
671.0	90.93
671.2	90.10
671.4	88.18
671.6	87.59
671.8	86.61
672.0	85.90
672.2	84.96
672.4	85.27
672.6	84.30
672.8	85.83
673.0	84.94
673.2	83.86
673.4	83.13
673.6	82.80
673.8	80.72
674.0	82.13
674.2	80.33
674.4	80.37
674.6	80.88
674.8	80.73
675.0	80.06
675.2	80.20
675.4	77.04
675.6	76.58
675.8	75.92
676.0	75.50
676.2	76.46
676.4	76.41
676.6	76.11
676.8	75.77
677.0	75.38
677.2	74.56
677.4	74.19
677.6	73.43
677.8	72.95
678.0	71.86
678.2	71.80
678.4	71.51
678.6	71.42
678.8	70.97
679.0	69.57
679.2	69.43
679.4	68.76
679.6	68.25
679.8	67.74
680.0	67.21

