Sample:	'20211010A(EM)
File name:	G-NI 1 100.FDS
Run date:	'16:28:42, 06/19/2023
Operator:	Administrator
Comment:	'

Instrument
Model:	F-4700 FL Spectrophotometer
Serial number:	2019-001
ROM Version:	5J24010 00

Instrument parameters
Measurement type:	Wavelength scan
Scan mode:	Emission
Data mode:	Fluorescence
EX WL:	400.0 nm
EM  Start WL:	420.0 nm
EM  End WL:	800.0 nm
Scan speed:	1200 nm/min
Delay:	0.0 s
EX Slit:	10.0 nm
EM Slit:	10.0 nm
PMT Voltage:	500 V
Response:	0.002 s
Corrected spectra:	Off
Shutter control:	On

Processing performed
Savitsky-Golay smoothed
Smoothing order:	3
Number of points:	7
Number of times:	1

Peak integration
Integration method:	Rectangular
Sensitivity:	1
Threshold:	1.000

Peaks
No.	Start(nm)	Apex(nm)	End(nm)	Height(Data)	Valley(nm)	Valley(Data)
1	420.0	547.4	548.4	2305	548.4	2294
2	548.4	549.2	550.4	2309	550.4	2291
3	550.4	551.2	552.0	2301	552.0	2292
4	552.0	553.0	555.8	2296	555.8	2242
5	555.8	556.8	736.0	2255	736.0	15.05
6	736.0	736.6	744.4	16.11	744.4	11.71
7	744.4	745.2	759.6	13.00	759.6	7.077
8	759.6	760.4	777.2	8.253	777.2	3.756

Data points
nm	Data
420.0	1.544
420.2	0.991
420.4	0.961
420.6	1.209
420.8	1.375
421.0	1.447
421.2	1.445
421.4	1.305
421.6	1.301
421.8	1.324
422.0	1.281
422.2	1.218
422.4	1.120
422.6	1.236
422.8	1.352
423.0	1.363
423.2	1.378
423.4	1.182
423.6	0.993
423.8	1.030
424.0	1.087
424.2	1.098
424.4	1.191
424.6	1.217
424.8	1.283
425.0	1.397
425.2	1.392
425.4	1.358
425.6	1.275
425.8	1.336
426.0	1.249
426.2	1.383
426.4	1.318
426.6	1.337
426.8	1.141
427.0	1.244
427.2	1.087
427.4	1.160
427.6	1.209
427.8	1.321
428.0	1.191
428.2	1.133
428.4	1.031
428.6	1.082
428.8	1.064
429.0	1.146
429.2	1.277
429.4	1.255
429.6	1.414
429.8	1.454
430.0	1.272
430.2	1.237
430.4	1.217
430.6	1.165
430.8	1.389
431.0	1.500
431.2	1.369
431.4	1.364
431.6	1.188
431.8	1.061
432.0	1.229
432.2	1.283
432.4	1.312
432.6	1.308
432.8	1.298
433.0	1.251
433.2	1.378
433.4	1.361
433.6	1.331
433.8	1.352
434.0	1.254
434.2	1.208
434.4	1.238
434.6	1.297
434.8	1.323
435.0	1.340
435.2	1.265
435.4	1.251
435.6	1.151
435.8	1.271
436.0	1.343
436.2	1.367
436.4	1.483
436.6	1.397
436.8	1.146
437.0	0.971
437.2	0.963
437.4	1.097
437.6	1.279
437.8	1.400
438.0	1.383
438.2	1.326
438.4	1.361
438.6	1.302
438.8	1.195
439.0	1.110
439.2	1.105
439.4	1.173
439.6	1.170
439.8	1.364
440.0	1.379
440.2	1.365
440.4	1.401
440.6	1.350
440.8	1.300
441.0	1.410
441.2	1.319
441.4	1.248
441.6	1.170
441.8	1.161
442.0	1.201
442.2	1.359
442.4	1.494
442.6	1.478
442.8	1.506
443.0	1.584
443.2	1.484
443.4	1.384
443.6	1.430
443.8	1.502
444.0	1.624
444.2	1.638
444.4	1.499
444.6	1.250
444.8	1.313
445.0	1.462
445.2	1.506
445.4	1.497
445.6	1.492
445.8	1.448
446.0	1.469
446.2	1.487
446.4	1.582
446.6	1.661
446.8	1.841
447.0	1.957
447.2	1.757
447.4	1.479
447.6	1.390
447.8	1.332
448.0	1.461
448.2	1.751
448.4	1.924
448.6	1.803
448.8	1.819
449.0	1.601
449.2	1.426
449.4	1.553
449.6	1.726
449.8	1.873
450.0	1.949
450.2	1.829
450.4	1.854
450.6	1.879
450.8	2.014
451.0	2.215
451.2	2.181
451.4	2.266
451.6	2.163
451.8	1.934
452.0	1.956
452.2	1.961
452.4	1.836
452.6	1.843
452.8	1.707
453.0	1.764
453.2	2.028
453.4	2.115
453.6	2.019
453.8	1.840
454.0	1.721
454.2	1.951
454.4	2.295
454.6	2.343
454.8	2.370
455.0	2.499
455.2	2.476
455.4	2.453
455.6	2.497
455.8	2.267
456.0	2.114
456.2	2.206
456.4	2.291
456.6	2.209
456.8	2.386
457.0	2.440
457.2	2.368
457.4	2.331
457.6	2.367
457.8	2.403
458.0	2.552
458.2	2.619
458.4	2.743
458.6	2.817
458.8	2.793
459.0	2.840
459.2	2.880
459.4	2.823
459.6	2.831
459.8	2.633
460.0	2.560
460.2	2.958
460.4	3.221
460.6	3.455
460.8	3.545
461.0	3.430
461.2	3.625
461.4	4.057
461.6	3.931
461.8	3.832
462.0	3.547
462.2	3.387
462.4	3.692
462.6	3.938
462.8	4.085
463.0	4.041
463.2	3.947
463.4	3.830
463.6	4.037
463.8	4.097
464.0	4.408
464.2	4.606
464.4	4.779
464.6	4.937
464.8	5.019
465.0	4.982
465.2	5.203
465.4	5.176
465.6	5.229
465.8	5.523
466.0	5.313
466.2	5.268
466.4	5.374
466.6	5.352
466.8	5.657
467.0	6.268
467.2	6.535
467.4	6.928
467.6	7.080
467.8	6.956
468.0	6.692
468.2	6.914
468.4	7.069
468.6	7.492
468.8	7.756
469.0	7.871
469.2	7.961
469.4	8.335
469.6	8.564
469.8	8.692
470.0	9.040
470.2	9.280
470.4	9.631
470.6	9.901
470.8	10.35
471.0	10.27
471.2	10.35
471.4	10.30
471.6	10.53
471.8	10.66
472.0	11.56
472.2	12.09
472.4	12.47
472.6	12.87
472.8	13.15
473.0	12.97
473.2	13.29
473.4	13.58
473.6	13.81
473.8	14.44
474.0	14.92
474.2	15.11
474.4	15.36
474.6	15.93
474.8	16.38
475.0	16.88
475.2	17.55
475.4	18.16
475.6	18.45
475.8	19.43
476.0	20.10
476.2	20.53
476.4	21.03
476.6	21.56
476.8	21.73
477.0	22.58
477.2	23.64
477.4	24.44
477.6	25.51
477.8	27.03
478.0	27.79
478.2	27.74
478.4	27.49
478.6	27.78
478.8	28.25
479.0	29.59
479.2	30.80
479.4	32.46
479.6	33.47
479.8	35.57
480.0	36.22
480.2	36.68
480.4	37.00
480.6	38.85
480.8	39.76
481.0	41.60
481.2	42.60
481.4	43.11
481.6	43.20
481.8	44.40
482.0	45.63
482.2	46.79
482.4	48.61
482.6	49.76
482.8	50.83
483.0	53.08
483.2	55.34
483.4	56.53
483.6	58.70
483.8	59.46
484.0	60.89
484.2	62.82
484.4	64.98
484.6	66.77
484.8	68.86
485.0	69.97
485.2	72.50
485.4	73.92
485.6	75.61
485.8	77.55
486.0	79.29
486.2	80.67
486.4	82.87
486.6	84.81
486.8	87.02
487.0	89.90
487.2	92.98
487.4	95.27
487.6	97.71
487.8	100.9
488.0	103.3
488.2	104.9
488.4	107.4
488.6	110.4
488.8	113.0
489.0	116.5
489.2	118.9
489.4	121.0
489.6	125.2
489.8	129.9
490.0	132.9
490.2	135.8
490.4	139.4
490.6	143.0
490.8	148.7
491.0	154.1
491.2	157.6
491.4	158.8
491.6	161.8
491.8	163.3
492.0	166.4
492.2	172.0
492.4	176.0
492.6	179.0
492.8	182.9
493.0	186.3
493.2	191.1
493.4	197.2
493.6	203.3
493.8	208.1
494.0	213.1
494.2	218.0
494.4	222.7
494.6	226.0
494.8	230.3
495.0	233.6
495.2	240.0
495.4	246.7
495.6	251.4
495.8	255.6
496.0	261.8
496.2	267.5
496.4	274.1
496.6	280.5
496.8	285.3
497.0	291.5
497.2	297.6
497.4	302.3
497.6	307.2
497.8	313.4
498.0	319.8
498.2	326.6
498.4	333.6
498.6	339.3
498.8	346.1
499.0	352.1
499.2	356.5
499.4	362.6
499.6	371.8
499.8	380.7
500.0	389.8
500.2	398.6
500.4	404.9
500.6	413.3
500.8	420.0
501.0	424.3
501.2	430.0
501.4	437.3
501.6	445.8
501.8	456.3
502.0	463.8
502.2	471.9
502.4	480.2
502.6	488.8
502.8	497.9
503.0	506.6
503.2	514.6
503.4	524.8
503.6	533.2
503.8	541.4
504.0	547.0
504.2	553.8
504.4	563.0
504.6	574.1
504.8	584.6
505.0	593.2
505.2	600.0
505.4	607.3
505.6	615.1
505.8	628.3
506.0	640.6
506.2	653.4
506.4	663.3
506.6	673.3
506.8	680.1
507.0	692.5
507.2	702.7
507.4	711.9
507.6	719.3
507.8	731.0
508.0	739.5
508.2	749.0
508.4	759.1
508.6	769.6
508.8	779.5
509.0	792.7
509.2	802.8
509.4	814.3
509.6	826.5
509.8	839.8
510.0	846.9
510.2	855.4
510.4	863.9
510.6	877.2
510.8	888.8
511.0	901.3
511.2	911.3
511.4	922.5
511.6	932.8
511.8	943.5
512.0	952.2
512.2	960.2
512.4	968.1
512.6	981.5
512.8	997.8
513.0	1009
513.2	1020
513.4	1028
513.6	1038
513.8	1052
514.0	1066
514.2	1075
514.4	1084
514.6	1094
514.8	1107
515.0	1119
515.2	1135
515.4	1145
515.6	1155
515.8	1168
516.0	1177
516.2	1190
516.4	1202
516.6	1210
516.8	1221
517.0	1233
517.2	1247
517.4	1260
517.6	1271
517.8	1277
518.0	1289
518.2	1302
518.4	1314
518.6	1325
518.8	1335
519.0	1345
519.2	1357
519.4	1372
519.6	1382
519.8	1396
520.0	1408
520.2	1420
520.4	1429
520.6	1436
520.8	1446
521.0	1459
521.2	1474
521.4	1488
521.6	1498
521.8	1506
522.0	1517
522.2	1528
522.4	1541
522.6	1557
522.8	1566
523.0	1576
523.2	1580
523.4	1590
523.6	1595
523.8	1608
524.0	1622
524.2	1637
524.4	1649
524.6	1665
524.8	1671
525.0	1680
525.2	1687
525.4	1693
525.6	1704
525.8	1721
526.0	1732
526.2	1744
526.4	1749
526.6	1750
526.8	1759
527.0	1777
527.2	1790
527.4	1803
527.6	1808
527.8	1809
528.0	1814
528.2	1823
528.4	1836
528.6	1848
528.8	1865
529.0	1873
529.2	1884
529.4	1894
529.6	1901
529.8	1905
530.0	1914
530.2	1916
530.4	1925
530.6	1937
530.8	1945
531.0	1958
531.2	1965
531.4	1974
531.6	1981
531.8	1988
532.0	1994
532.2	2005
532.4	2009
532.6	2016
532.8	2018
533.0	2024
533.2	2032
533.4	2041
533.6	2046
533.8	2055
534.0	2061
534.2	2069
534.4	2077
534.6	2083
534.8	2083
535.0	2088
535.2	2095
535.4	2103
535.6	2110
535.8	2115
536.0	2118
536.2	2127
536.4	2134
536.6	2141
536.8	2147
537.0	2154
537.2	2155
537.4	2163
537.6	2164
537.8	2164
538.0	2172
538.2	2183
538.4	2185
538.6	2190
538.8	2188
539.0	2189
539.2	2202
539.4	2213
539.6	2217
539.8	2219
540.0	2221
540.2	2223
540.4	2228
540.6	2230
540.8	2232
541.0	2234
541.2	2240
541.4	2246
541.6	2244
541.8	2247
542.0	2252
542.2	2252
542.4	2254
542.6	2262
542.8	2267
543.0	2273
543.2	2275
543.4	2272
543.6	2269
543.8	2273
544.0	2278
544.2	2284
544.4	2289
544.6	2289
544.8	2286
545.0	2286
545.2	2286
545.4	2290
545.6	2292
545.8	2295
546.0	2297
546.2	2297
546.4	2298
546.6	2300
546.8	2298
547.0	2302
547.2	2303
547.4	2305
547.6	2304
547.8	2302
548.0	2302
548.2	2299
548.4	2294
548.6	2297
548.8	2303
549.0	2304
549.2	2309
549.4	2309
549.6	2300
549.8	2296
550.0	2297
550.2	2293
550.4	2291
550.6	2293
550.8	2292
551.0	2298
551.2	2301
551.4	2300
551.6	2295
551.8	2294
552.0	2292
552.2	2293
552.4	2292
552.6	2294
552.8	2296
553.0	2296
553.2	2292
553.4	2286
553.6	2282
553.8	2276
554.0	2277
554.2	2276
554.4	2272
554.6	2270
554.8	2276
555.0	2271
555.2	2264
555.4	2259
555.6	2248
555.8	2242
556.0	2248
556.2	2251
556.4	2251
556.6	2253
556.8	2255
557.0	2254
557.2	2249
557.4	2246
557.6	2238
557.8	2230
558.0	2230
558.2	2229
558.4	2224
558.6	2222
558.8	2218
559.0	2216
559.2	2217
559.4	2213
559.6	2207
559.8	2200
560.0	2195
560.2	2194
560.4	2196
560.6	2194
560.8	2191
561.0	2187
561.2	2178
561.4	2170
561.6	2162
561.8	2156
562.0	2148
562.2	2146
562.4	2143
562.6	2144
562.8	2142
563.0	2139
563.2	2127
563.4	2122
563.6	2123
563.8	2123
564.0	2127
564.2	2124
564.4	2111
564.6	2104
564.8	2095
565.0	2090
565.2	2092
565.4	2088
565.6	2084
565.8	2083
566.0	2073
566.2	2071
566.4	2065
566.6	2058
566.8	2054
567.0	2046
567.2	2039
567.4	2037
567.6	2034
567.8	2027
568.0	2021
568.2	2015
568.4	2014
568.6	2011
568.8	2004
569.0	1997
569.2	1992
569.4	1985
569.6	1981
569.8	1973
570.0	1965
570.2	1960
570.4	1961
570.6	1960
570.8	1958
571.0	1955
571.2	1946
571.4	1937
571.6	1936
571.8	1935
572.0	1930
572.2	1924
572.4	1916
572.6	1909
572.8	1908
573.0	1905
573.2	1898
573.4	1887
573.6	1878
573.8	1871
574.0	1871
574.2	1870
574.4	1868
574.6	1861
574.8	1852
575.0	1842
575.2	1835
575.4	1827
575.6	1824
575.8	1818
576.0	1813
576.2	1806
576.4	1795
576.6	1785
576.8	1782
577.0	1781
577.2	1780
577.4	1780
577.6	1774
577.8	1766
578.0	1758
578.2	1752
578.4	1744
578.6	1742
578.8	1741
579.0	1732
579.2	1724
579.4	1714
579.6	1705
579.8	1701
580.0	1697
580.2	1695
580.4	1693
580.6	1689
580.8	1679
581.0	1673
581.2	1664
581.4	1660
581.6	1659
581.8	1651
582.0	1643
582.2	1642
582.4	1638
582.6	1633
582.8	1626
583.0	1613
583.2	1603
583.4	1597
583.6	1592
583.8	1587
584.0	1580
584.2	1581
584.4	1581
584.6	1582
584.8	1575
585.0	1565
585.2	1550
585.4	1543
585.6	1539
585.8	1539
586.0	1536
586.2	1534
586.4	1521
586.6	1512
586.8	1503
587.0	1496
587.2	1494
587.4	1493
587.6	1486
587.8	1479
588.0	1470
588.2	1462
588.4	1459
588.6	1456
588.8	1452
589.0	1449
589.2	1441
589.4	1434
589.6	1429
589.8	1426
590.0	1419
590.2	1417
590.4	1410
590.6	1404
590.8	1397
591.0	1395
591.2	1389
591.4	1386
591.6	1382
591.8	1377
592.0	1370
592.2	1364
592.4	1356
592.6	1350
592.8	1347
593.0	1344
593.2	1343
593.4	1339
593.6	1333
593.8	1321
594.0	1308
594.2	1303
594.4	1302
594.6	1296
594.8	1297
595.0	1290
595.2	1282
595.4	1276
595.6	1269
595.8	1258
596.0	1253
596.2	1247
596.4	1245
596.6	1242
596.8	1239
597.0	1228
597.2	1225
597.4	1218
597.6	1214
597.8	1214
598.0	1212
598.2	1205
598.4	1204
598.6	1194
598.8	1190
599.0	1186
599.2	1178
599.4	1170
599.6	1164
599.8	1156
600.0	1156
600.2	1150
600.4	1145
600.6	1137
600.8	1130
601.0	1126
601.2	1122
601.4	1118
601.6	1116
601.8	1113
602.0	1110
602.2	1106
602.4	1099
602.6	1094
602.8	1085
603.0	1076
603.2	1068
603.4	1062
603.6	1062
603.8	1057
604.0	1053
604.2	1051
604.4	1046
604.6	1041
604.8	1041
605.0	1036
605.2	1031
605.4	1026
605.6	1020
605.8	1014
606.0	1012
606.2	1008
606.4	1003
606.6	999.3
606.8	995.1
607.0	985.0
607.2	977.6
607.4	969.2
607.6	965.8
607.8	964.7
608.0	967.3
608.2	964.5
608.4	964.1
608.6	957.8
608.8	951.7
609.0	940.7
609.2	932.4
609.4	926.0
609.6	924.0
609.8	922.7
610.0	921.9
610.2	916.8
610.4	910.5
610.6	905.3
610.8	899.6
611.0	895.0
611.2	887.3
611.4	882.2
611.6	878.2
611.8	876.8
612.0	872.1
612.2	867.7
612.4	859.7
612.6	854.2
612.8	850.6
613.0	849.5
613.2	845.1
613.4	843.5
613.6	838.7
613.8	833.6
614.0	829.7
614.2	826.8
614.4	821.3
614.6	817.5
614.8	812.6
615.0	808.4
615.2	807.0
615.4	804.7
615.6	800.1
615.8	792.1
616.0	788.2
616.2	786.3
616.4	784.0
616.6	776.8
616.8	769.6
617.0	762.1
617.2	762.8
617.4	761.2
617.6	757.7
617.8	750.4
618.0	743.0
618.2	738.6
618.4	737.9
618.6	732.3
618.8	730.6
619.0	729.3
619.2	725.5
619.4	723.2
619.6	719.3
619.8	709.6
620.0	706.8
620.2	703.0
620.4	699.4
620.6	696.1
620.8	691.8
621.0	687.1
621.2	687.9
621.4	683.2
621.6	678.2
621.8	671.0
622.0	665.6
622.2	662.0
622.4	661.8
622.6	660.6
622.8	659.5
623.0	654.3
623.2	652.3
623.4	648.7
623.6	644.6
623.8	641.3
624.0	635.7
624.2	626.8
624.4	623.7
624.6	618.8
624.8	616.8
625.0	617.1
625.2	616.2
625.4	614.1
625.6	611.1
625.8	604.7
626.0	601.0
626.2	600.6
626.4	597.0
626.6	593.9
626.8	586.5
627.0	578.0
627.2	574.6
627.4	572.1
627.6	570.6
627.8	571.8
628.0	566.9
628.2	561.6
628.4	561.2
628.6	556.2
628.8	554.8
629.0	551.9
629.2	548.4
629.4	542.1
629.6	540.9
629.8	536.7
630.0	533.0
630.2	531.0
630.4	527.8
630.6	522.3
630.8	521.7
631.0	520.2
631.2	517.0
631.4	514.0
631.6	508.9
631.8	506.2
632.0	508.1
632.2	507.6
632.4	504.0
632.6	499.3
632.8	493.3
633.0	487.3
633.2	485.2
633.4	480.8
633.6	478.1
633.8	476.5
634.0	474.6
634.2	470.2
634.4	465.3
634.6	463.2
634.8	462.4
635.0	463.0
635.2	461.7
635.4	456.9
635.6	452.7
635.8	450.1
636.0	447.5
636.2	445.4
636.4	441.6
636.6	436.9
636.8	436.0
637.0	433.6
637.2	431.8
637.4	430.4
637.6	428.0
637.8	424.0
638.0	421.4
638.2	417.4
638.4	411.6
638.6	409.9
638.8	408.2
639.0	407.3
639.2	407.2
639.4	404.4
639.6	398.1
639.8	396.1
640.0	396.0
640.2	394.6
640.4	393.7
640.6	391.9
640.8	387.9
641.0	383.9
641.2	381.3
641.4	378.3
641.6	377.9
641.8	378.6
642.0	377.6
642.2	372.8
642.4	367.3
642.6	364.0
642.8	362.0
643.0	358.5
643.2	357.2
643.4	354.7
643.6	352.1
643.8	351.2
644.0	348.0
644.2	345.2
644.4	344.8
644.6	343.8
644.8	342.3
645.0	338.6
645.2	334.9
645.4	332.8
645.6	330.8
645.8	328.9
646.0	327.2
646.2	325.8
646.4	327.0
646.6	324.9
646.8	322.3
647.0	318.1
647.2	316.2
647.4	316.7
647.6	316.2
647.8	312.0
648.0	309.0
648.2	304.3
648.4	302.1
648.6	300.2
648.8	299.2
649.0	297.3
649.2	297.4
649.4	295.1
649.6	292.4
649.8	288.1
650.0	286.9
650.2	285.7
650.4	285.3
650.6	285.3
650.8	284.6
651.0	283.4
651.2	281.0
651.4	278.1
651.6	276.1
651.8	274.8
652.0	271.8
652.2	269.7
652.4	267.0
652.6	265.8
652.8	266.6
653.0	265.2
653.2	261.5
653.4	258.7
653.6	257.5
653.8	255.8
654.0	255.8
654.2	254.1
654.4	250.5
654.6	250.5
654.8	248.6
655.0	247.1
655.2	246.7
655.4	245.1
655.6	243.2
655.8	242.2
656.0	239.7
656.2	238.2
656.4	237.1
656.6	236.1
656.8	235.9
657.0	234.1
657.2	230.5
657.4	226.7
657.6	224.2
657.8	222.4
658.0	221.3
658.2	220.8
658.4	221.1
658.6	219.4
658.8	217.6
659.0	216.5
659.2	215.7
659.4	215.6
659.6	214.8
659.8	210.8
660.0	208.0
660.2	207.2
660.4	208.5
660.6	209.1
660.8	207.5
661.0	204.2
661.2	202.1
661.4	201.1
661.6	198.8
661.8	197.8
662.0	198.0
662.2	195.4
662.4	193.7
662.6	192.0
662.8	189.7
663.0	188.9
663.2	188.9
663.4	186.7
663.6	184.6
663.8	183.7
664.0	183.6
664.2	183.0
664.4	181.4
664.6	180.2
664.8	178.3
665.0	178.1
665.2	177.1
665.4	176.0
665.6	174.4
665.8	173.3
666.0	171.1
666.2	169.6
666.4	168.6
666.6	168.1
666.8	168.0
667.0	168.2
667.2	167.6
667.4	166.5
667.6	165.9
667.8	164.2
668.0	161.4
668.2	159.7
668.4	157.0
668.6	156.4
668.8	156.6
669.0	156.5
669.2	155.0
669.4	153.9
669.6	152.0
669.8	150.6
670.0	149.3
670.2	147.9
670.4	147.0
670.6	146.5
670.8	146.1
671.0	144.8
671.2	143.6
671.4	142.8
671.6	143.7
671.8	144.0
672.0	143.6
672.2	142.6
672.4	140.2
672.6	138.4
672.8	137.9
673.0	136.4
673.2	134.3
673.4	133.2
673.6	131.5
673.8	130.5
674.0	131.7
674.2	131.1
674.4	130.0
674.6	129.2
674.8	127.5
675.0	125.9
675.2	125.7
675.4	124.8
675.6	124.1
675.8	123.4
676.0	122.4
676.2	120.7
676.4	119.4
676.6	118.4
676.8	117.5
677.0	118.3
677.2	117.8
677.4	117.4
677.6	116.3
677.8	115.7
678.0	114.3
678.2	114.3
678.4	113.2
678.6	113.5
678.8	112.9
679.0	112.4
679.2	111.1
679.4	110.4
679.6	109.4
679.8	109.1
680.0	107.3
680.2	106.3
680.4	104.9
680.6	103.2
680.8	103.1
681.0	103.5
681.2	102.8
681.4	103.2
681.6	101.6
681.8	99.77
682.0	99.15
682.2	98.66
682.4	98.23
682.6	98.55
682.8	98.29
683.0	97.67
683.2	97.62
683.4	96.06
683.6	95.00
683.8	94.05
684.0	94.27
684.2	93.31
684.4	93.23
684.6	91.62
684.8	90.32
685.0	89.22
685.2	88.23
685.4	88.53
685.6	88.47
685.8	87.70
686.0	86.67
686.2	85.49
686.4	84.09
686.6	84.22
686.8	84.31
687.0	84.53
687.2	84.29
687.4	82.86
687.6	82.62
687.8	81.51
688.0	81.29
688.2	82.46
688.4	81.72
688.6	80.60
688.8	79.65
689.0	77.82
689.2	76.95
689.4	77.69
689.6	76.45
689.8	76.05
690.0	75.59
690.2	74.84
690.4	73.33
690.6	73.59
690.8	73.70
691.0	73.03
691.2	72.42
691.4	71.99
691.6	70.16
691.8	70.38
692.0	70.43
692.2	69.88
692.4	69.30
692.6	68.90
692.8	68.75
693.0	69.34
693.2	69.06
693.4	68.23
693.6	67.66
693.8	66.52
694.0	66.74
694.2	66.98
694.4	67.06
694.6	66.26
694.8	65.39
695.0	63.87
695.2	63.19
695.4	62.01
695.6	62.63
695.8	62.60
696.0	62.81
696.2	62.15
696.4	61.35
696.6	59.63
696.8	59.67
697.0	58.93
697.2	59.73
697.4	59.88
697.6	59.47
697.8	59.12
698.0	58.80
698.2	58.48
698.4	58.37
698.6	57.57
698.8	57.08
699.0	56.51
699.2	56.52
699.4	56.59
699.6	55.76
699.8	55.80
700.0	54.90
700.2	54.53
700.4	54.02
700.6	53.23
700.8	51.88
701.0	51.97
701.2	51.27
701.4	51.99
701.6	51.64
701.8	51.98
702.0	51.74
702.2	52.00
702.4	51.97
702.6	51.60
702.8	50.88
703.0	50.79
703.2	49.97
703.4	49.65
703.6	48.97
703.8	48.36
704.0	48.20
704.2	49.30
704.4	49.54
704.6	50.19
704.8	49.33
705.0	48.14
705.2	47.16
705.4	46.74
705.6	46.49
705.8	46.31
706.0	45.41
706.2	44.69
706.4	44.58
706.6	44.78
706.8	45.40
707.0	45.61
707.2	44.96
707.4	43.41
707.6	42.82
707.8	43.23
708.0	43.44
708.2	43.63
708.4	43.14
708.6	42.31
708.8	41.76
709.0	42.10
709.2	41.55
709.4	41.03
709.6	40.75
709.8	40.44
710.0	40.59
710.2	40.94
710.4	40.89
710.6	40.37
710.8	39.44
711.0	38.72
711.2	38.53
711.4	38.48
711.6	38.50
711.8	38.26
712.0	38.04
712.2	37.96
712.4	37.80
712.6	37.59
712.8	36.60
713.0	36.79
713.2	37.61
713.4	37.10
713.6	37.11
713.8	36.93
714.0	36.12
714.2	35.98
714.4	36.40
714.6	35.44
714.8	35.22
715.0	34.69
715.2	34.10
715.4	33.71
715.6	33.58
715.8	33.02
716.0	33.38
716.2	33.08
716.4	33.13
716.6	33.27
716.8	33.41
717.0	32.88
717.2	32.51
717.4	31.77
717.6	31.64
717.8	30.99
718.0	31.67
718.2	32.08
718.4	31.64
718.6	31.04
718.8	30.93
719.0	30.30
719.2	30.20
719.4	30.19
719.6	29.50
719.8	28.77
720.0	28.68
720.2	28.81
720.4	28.36
720.6	28.28
720.8	27.94
721.0	27.58
721.2	27.64
721.4	27.78
721.6	27.34
721.8	27.41
722.0	27.01
722.2	26.76
722.4	27.01
722.6	27.08
722.8	26.81
723.0	26.68
723.2	26.16
723.4	25.38
723.6	24.39
723.8	23.72
724.0	24.24
724.2	24.51
724.4	24.64
724.6	24.31
724.8	23.57
725.0	23.12
725.2	23.68
725.4	23.71
725.6	23.86
725.8	23.67
726.0	23.79
726.2	23.75
726.4	23.27
726.6	23.13
726.8	23.01
727.0	22.46
727.2	21.94
727.4	21.79
727.6	20.86
727.8	20.85
728.0	21.04
728.2	21.24
728.4	21.33
728.6	21.44
728.8	21.27
729.0	21.14
729.2	20.87
729.4	20.61
729.6	20.63
729.8	20.35
730.0	20.32
730.2	20.07
730.4	19.85
730.6	19.66
730.8	19.61
731.0	19.63
731.2	19.62
731.4	19.29
731.6	19.28
731.8	18.77
732.0	18.27
732.2	18.23
732.4	17.96
732.6	17.99
732.8	18.21
733.0	17.78
733.2	17.97
733.4	18.29
733.6	18.21
733.8	18.10
734.0	17.59
734.2	16.70
734.4	16.52
734.6	16.92
734.8	17.25
735.0	17.09
735.2	16.97
735.4	16.33
735.6	15.49
735.8	15.23
736.0	15.05
736.2	15.33
736.4	15.91
736.6	16.11
736.8	16.06
737.0	15.76
737.2	15.42
737.4	15.51
737.6	15.40
737.8	15.21
738.0	15.17
738.2	14.76
738.4	14.56
738.6	15.01
738.8	14.69
739.0	14.65
739.2	14.53
739.4	13.86
739.6	13.69
739.8	14.08
740.0	13.46
740.2	13.46
740.4	13.38
740.6	13.11
740.8	13.27
741.0	13.63
741.2	13.63
741.4	13.27
741.6	12.95
741.8	12.88
742.0	12.83
742.2	13.18
742.4	13.27
742.6	13.17
742.8	12.95
743.0	12.92
743.2	12.95
743.4	12.84
743.6	12.55
743.8	12.57
744.0	12.06
744.2	11.77
744.4	11.71
744.6	11.90
744.8	12.46
745.0	12.82
745.2	13.00
745.4	12.57
745.6	11.62
745.8	11.24
746.0	11.42
746.2	11.46
746.4	11.71
746.6	11.48
746.8	11.03
747.0	10.78
747.2	10.77
747.4	10.70
747.6	10.60
747.8	10.39
748.0	10.43
748.2	10.43
748.4	10.04
748.6	9.804
748.8	9.967
749.0	10.07
749.2	10.17
749.4	10.24
749.6	9.779
749.8	9.564
750.0	9.932
750.2	9.861
750.4	9.863
750.6	9.688
750.8	9.454
751.0	9.288
751.2	9.575
751.4	9.505
751.6	9.387
751.8	9.429
752.0	9.777
752.2	9.685
752.4	9.567
752.6	9.567
752.8	9.084
753.0	9.107
753.2	9.134
753.4	8.724
753.6	8.686
753.8	8.763
754.0	8.815
754.2	9.287
754.4	8.848
754.6	8.374
754.8	8.408
755.0	8.385
755.2	8.549
755.4	8.915
755.6	8.511
755.8	8.400
756.0	8.541
756.2	8.789
756.4	8.894
756.6	8.773
756.8	8.222
757.0	7.884
757.2	7.762
757.4	7.386
757.6	7.478
757.8	7.706
758.0	7.888
758.2	8.230
758.4	8.087
758.6	7.677
758.8	7.508
759.0	7.190
759.2	7.245
759.4	7.377
759.6	7.077
759.8	7.208
760.0	7.609
760.2	7.715
760.4	8.253
760.6	8.100
760.8	7.732
761.0	7.394
761.2	6.984
761.4	6.664
761.6	6.959
761.8	6.806
762.0	6.860
762.2	6.796
762.4	6.621
762.6	6.693
762.8	6.730
763.0	6.593
763.2	6.080
763.4	5.768
763.6	5.694
763.8	5.860
764.0	6.078
764.2	6.417
764.4	6.234
764.6	6.210
764.8	6.008
765.0	6.033
765.2	6.046
765.4	6.208
765.6	5.986
765.8	5.822
766.0	5.724
766.2	5.678
766.4	5.658
766.6	5.673
766.8	5.496
767.0	5.491
767.2	5.681
767.4	5.553
767.6	5.849
767.8	5.920
768.0	5.818
768.2	5.755
768.4	5.566
768.6	5.147
768.8	5.100
769.0	5.104
769.2	5.108
769.4	5.213
769.6	5.315
769.8	5.322
770.0	5.280
770.2	5.442
770.4	5.419
770.6	5.446
770.8	5.427
771.0	5.120
771.2	4.785
771.4	4.617
771.6	4.503
771.8	4.594
772.0	4.797
772.2	4.785
772.4	4.805
772.6	4.658
772.8	4.803
773.0	4.951
773.2	5.074
773.4	5.020
773.6	4.810
773.8	4.627
774.0	4.770
774.2	5.079
774.4	5.173
774.6	5.113
774.8	4.975
775.0	4.766
775.2	4.558
775.4	4.614
775.6	4.351
775.8	4.318
776.0	4.172
776.2	4.245
776.4	4.232
776.6	4.265
776.8	4.126
777.0	4.233
777.2	3.756
777.4	4.001
777.6	4.102
777.8	4.153
778.0	4.311
778.2	4.316
778.4	4.178
778.6	4.150
778.8	4.130
779.0	4.088
779.2	4.192
779.4	4.328
779.6	4.564
779.8	4.350
780.0	4.211
780.2	4.062
780.4	3.921
780.6	4.162
780.8	4.238
781.0	4.137
781.2	4.117
781.4	3.912
781.6	3.887
781.8	3.907
782.0	4.289
782.2	4.364
782.4	4.316
782.6	4.231
782.8	4.185
783.0	4.054
783.2	4.144
783.4	3.979
783.6	3.878
783.8	4.089
784.0	4.136
784.2	4.531
784.4	4.425
784.6	4.348
784.8	4.257
785.0	4.312
785.2	4.206
785.4	4.551
785.6	4.631
785.8	4.692
786.0	4.689
786.2	4.682
786.4	4.541
786.6	4.753
786.8	4.762
787.0	5.006
787.2	5.060
787.4	4.981
787.6	4.840
787.8	5.065
788.0	5.010
788.2	5.174
788.4	5.246
788.6	5.072
788.8	4.923
789.0	4.968
789.2	4.705
789.4	4.521
789.6	4.816
789.8	5.016
790.0	5.431
790.2	5.612
790.4	5.585
790.6	5.335
790.8	5.465
791.0	5.630
791.2	5.473
791.4	5.337
791.6	5.433
791.8	5.547
792.0	5.835
792.2	6.108
792.4	5.937
792.6	5.879
792.8	5.856
793.0	5.913
793.2	5.742
793.4	5.910
793.6	6.117
793.8	6.625
794.0	6.862
794.2	6.982
794.4	6.830
794.6	6.631
794.8	6.484
795.0	6.638
795.2	6.795
795.4	6.696
795.6	6.764
795.8	6.811
796.0	6.971
796.2	7.005
796.4	7.280
796.6	7.014
796.8	7.138
797.0	7.118
797.2	6.993
797.4	6.869
797.6	7.080
797.8	7.163
798.0	7.403
798.2	7.163
798.4	6.997
798.6	6.989
798.8	7.661
799.0	7.978
799.2	8.266
799.4	8.176
799.6	7.917
799.8	7.803
800.0	8.062

