Sample:	'20211010A(EM)
File name:	G-NI 2.FDS
Run date:	'16:30:19, 06/19/2023
Operator:	Administrator
Comment:	'

Instrument
Model:	F-4700 FL Spectrophotometer
Serial number:	2019-001
ROM Version:	5J24010 00

Instrument parameters
Measurement type:	Wavelength scan
Scan mode:	Emission
Data mode:	Fluorescence
EX WL:	400.0 nm
EM  Start WL:	420.0 nm
EM  End WL:	800.0 nm
Scan speed:	1200 nm/min
Delay:	0.0 s
EX Slit:	10.0 nm
EM Slit:	10.0 nm
PMT Voltage:	500 V
Response:	0.002 s
Corrected spectra:	Off
Shutter control:	On

Processing performed
Savitsky-Golay smoothed
Smoothing order:	3
Number of points:	7
Number of times:	1

Peak integration
Integration method:	Rectangular
Sensitivity:	1
Threshold:	1.000

Peaks
No.	Start(nm)	Apex(nm)	End(nm)	Height(Data)	Valley(nm)	Valley(Data)
1	420.0	538.2	539.6	2570	539.6	2540
2	539.6	541.6	768.8	2556	768.8	5.839
3	768.8	769.6	800.0	6.948	800.0	4.101

Data points
nm	Data
420.0	1.568
420.2	1.653
420.4	1.758
420.6	1.848
420.8	1.882
421.0	1.738
421.2	1.636
421.4	1.469
421.6	1.466
421.8	1.556
422.0	1.678
422.2	1.680
422.4	1.731
422.6	1.645
422.8	1.732
423.0	1.608
423.2	1.633
423.4	1.518
423.6	1.562
423.8	1.572
424.0	1.541
424.2	1.471
424.4	1.499
424.6	1.592
424.8	1.741
425.0	1.790
425.2	1.589
425.4	1.516
425.6	1.393
425.8	1.494
426.0	1.554
426.2	1.488
426.4	1.422
426.6	1.461
426.8	1.427
427.0	1.485
427.2	1.603
427.4	1.773
427.6	1.890
427.8	1.804
428.0	1.746
428.2	1.714
428.4	1.603
428.6	1.686
428.8	1.752
429.0	1.796
429.2	1.945
429.4	1.954
429.6	1.807
429.8	1.645
430.0	1.471
430.2	1.460
430.4	1.424
430.6	1.408
430.8	1.539
431.0	1.646
431.2	1.784
431.4	1.959
431.6	1.876
431.8	1.769
432.0	1.643
432.2	1.538
432.4	1.563
432.6	1.736
432.8	1.763
433.0	1.940
433.2	2.032
433.4	1.875
433.6	1.685
433.8	1.640
434.0	1.535
434.2	1.706
434.4	1.787
434.6	1.764
434.8	1.666
435.0	1.678
435.2	1.711
435.4	1.922
435.6	1.920
435.8	1.827
436.0	1.739
436.2	1.755
436.4	1.712
436.6	1.644
436.8	1.514
437.0	1.406
437.2	1.454
437.4	1.735
437.6	1.706
437.8	1.703
438.0	1.643
438.2	1.587
438.4	1.420
438.6	1.460
438.8	1.237
439.0	1.532
439.2	1.774
439.4	1.942
439.6	1.955
439.8	1.876
440.0	1.713
440.2	1.833
440.4	1.971
440.6	1.845
440.8	1.857
441.0	1.749
441.2	1.745
441.4	1.635
441.6	1.660
441.8	1.517
442.0	1.443
442.2	1.413
442.4	1.610
442.6	1.773
442.8	1.943
443.0	2.006
443.2	2.048
443.4	2.052
443.6	1.987
443.8	1.976
444.0	1.903
444.2	1.968
444.4	2.107
444.6	2.126
444.8	2.045
445.0	1.902
445.2	1.765
445.4	1.886
445.6	1.915
445.8	1.960
446.0	1.996
446.2	1.830
446.4	1.760
446.6	1.750
446.8	1.789
447.0	1.814
447.2	1.822
447.4	1.705
447.6	1.900
447.8	1.956
448.0	1.973
448.2	1.851
448.4	1.667
448.6	1.478
448.8	1.688
449.0	1.897
449.2	2.087
449.4	1.934
449.6	1.818
449.8	1.897
450.0	1.989
450.2	1.988
450.4	1.964
450.6	1.701
450.8	1.700
451.0	2.056
451.2	2.196
451.4	2.094
451.6	2.072
451.8	1.965
452.0	2.002
452.2	1.998
452.4	1.930
452.6	1.839
452.8	1.835
453.0	1.875
453.2	1.860
453.4	1.801
453.6	1.812
453.8	1.890
454.0	2.081
454.2	2.160
454.4	2.173
454.6	2.300
454.8	2.191
455.0	2.129
455.2	2.277
455.4	2.116
455.6	1.992
455.8	1.851
456.0	1.875
456.2	1.907
456.4	2.117
456.6	2.247
456.8	2.183
457.0	2.104
457.2	2.151
457.4	2.175
457.6	2.281
457.8	2.429
458.0	2.424
458.2	2.369
458.4	2.229
458.6	2.363
458.8	2.519
459.0	2.511
459.2	2.323
459.4	2.110
459.6	1.902
459.8	1.990
460.0	2.245
460.2	2.265
460.4	2.339
460.6	2.324
460.8	2.359
461.0	2.520
461.2	2.588
461.4	2.518
461.6	2.742
461.8	2.635
462.0	2.514
462.2	2.484
462.4	2.456
462.6	2.490
462.8	2.882
463.0	2.972
463.2	2.979
463.4	2.853
463.6	2.872
463.8	2.885
464.0	3.041
464.2	3.085
464.4	3.249
464.6	3.156
464.8	3.373
465.0	3.505
465.2	3.473
465.4	3.410
465.6	3.308
465.8	3.302
466.0	3.545
466.2	3.755
466.4	3.800
466.6	4.029
466.8	4.179
467.0	4.374
467.2	4.435
467.4	4.455
467.6	4.285
467.8	4.365
468.0	4.640
468.2	4.584
468.4	4.668
468.6	5.123
468.8	5.228
469.0	5.439
469.2	5.618
469.4	5.305
469.6	5.374
469.8	5.611
470.0	5.881
470.2	6.183
470.4	6.433
470.6	6.567
470.8	6.846
471.0	7.123
471.2	7.616
471.4	7.914
471.6	7.882
471.8	7.962
472.0	8.342
472.2	8.829
472.4	9.341
472.6	9.735
472.8	9.068
473.0	9.152
473.2	9.609
473.4	10.05
473.6	10.62
473.8	11.32
474.0	11.51
474.2	12.22
474.4	12.75
474.6	13.17
474.8	13.77
475.0	14.16
475.2	14.60
475.4	15.18
475.6	15.27
475.8	15.41
476.0	16.42
476.2	17.11
476.4	17.89
476.6	19.16
476.8	19.79
477.0	20.11
477.2	20.78
477.4	20.86
477.6	21.16
477.8	21.92
478.0	22.95
478.2	24.76
478.4	26.37
478.6	27.05
478.8	27.51
479.0	27.77
479.2	28.05
479.4	29.68
479.6	31.01
479.8	32.32
480.0	33.57
480.2	35.14
480.4	36.26
480.6	37.48
480.8	38.41
481.0	39.81
481.2	40.81
481.4	41.71
481.6	42.53
481.8	44.25
482.0	45.55
482.2	47.61
482.4	49.45
482.6	51.77
482.8	54.10
483.0	56.85
483.2	57.88
483.4	59.83
483.6	61.20
483.8	63.81
484.0	65.77
484.2	67.51
484.4	68.90
484.6	71.72
484.8	74.44
485.0	77.51
485.2	80.25
485.4	83.67
485.6	85.72
485.8	89.40
486.0	92.86
486.2	95.62
486.4	98.95
486.6	102.9
486.8	104.1
487.0	107.7
487.2	109.9
487.4	113.3
487.6	117.5
487.8	122.9
488.0	126.2
488.2	128.8
488.4	130.7
488.6	134.3
488.8	138.0
489.0	143.4
489.2	149.4
489.4	154.0
489.6	160.2
489.8	165.5
490.0	170.3
490.2	174.6
490.4	181.1
490.6	186.8
490.8	193.6
491.0	197.8
491.2	202.4
491.4	205.0
491.6	210.9
491.8	216.6
492.0	222.2
492.2	228.7
492.4	235.5
492.6	240.1
492.8	247.3
493.0	252.5
493.2	259.0
493.4	268.7
493.6	277.0
493.8	285.5
494.0	294.8
494.2	301.5
494.4	309.8
494.6	316.5
494.8	322.6
495.0	330.9
495.2	340.9
495.4	349.6
495.6	357.9
495.8	364.5
496.0	374.5
496.2	383.9
496.4	394.5
496.6	402.8
496.8	409.0
497.0	418.4
497.2	428.4
497.4	438.5
497.6	449.7
497.8	459.3
498.0	469.6
498.2	482.6
498.4	493.7
498.6	502.5
498.8	512.8
499.0	522.1
499.2	533.0
499.4	546.0
499.6	559.9
499.8	572.6
500.0	584.4
500.2	595.4
500.4	607.3
500.6	618.5
500.8	629.9
501.0	644.4
501.2	658.2
501.4	670.7
501.6	684.4
501.8	696.2
502.0	706.8
502.2	720.4
502.4	733.4
502.6	745.7
502.8	758.1
503.0	772.7
503.2	786.6
503.4	799.8
503.6	811.7
503.8	823.9
504.0	836.2
504.2	851.8
504.4	869.2
504.6	884.5
504.8	902.8
505.0	917.2
505.2	931.7
505.4	944.8
505.6	957.4
505.8	970.8
506.0	987.1
506.2	1004
506.4	1021
506.6	1036
506.8	1053
507.0	1069
507.2	1082
507.4	1098
507.6	1111
507.8	1124
508.0	1139
508.2	1154
508.4	1166
508.6	1182
508.8	1199
509.0	1213
509.2	1223
509.4	1242
509.6	1254
509.8	1271
510.0	1296
510.2	1315
510.4	1334
510.6	1352
510.8	1359
511.0	1370
511.2	1387
511.4	1406
511.6	1421
511.8	1436
512.0	1447
512.2	1461
512.4	1481
512.6	1502
512.8	1512
513.0	1526
513.2	1541
513.4	1558
513.6	1577
513.8	1594
514.0	1609
514.2	1619
514.4	1632
514.6	1643
514.8	1657
515.0	1672
515.2	1693
515.4	1710
515.6	1725
515.8	1739
516.0	1755
516.2	1766
516.4	1778
516.6	1788
516.8	1798
517.0	1819
517.2	1840
517.4	1855
517.6	1868
517.8	1875
518.0	1886
518.2	1903
518.4	1920
518.6	1931
518.8	1945
519.0	1956
519.2	1971
519.4	1988
519.6	2003
519.8	2010
520.0	2017
520.2	2024
520.4	2033
520.6	2046
520.8	2063
521.0	2074
521.2	2081
521.4	2090
521.6	2098
521.8	2111
522.0	2125
522.2	2139
522.4	2152
522.6	2161
522.8	2168
523.0	2179
523.2	2186
523.4	2200
523.6	2210
523.8	2221
524.0	2225
524.2	2230
524.4	2240
524.6	2259
524.8	2271
525.0	2284
525.2	2290
525.4	2293
525.6	2297
525.8	2310
526.0	2320
526.2	2327
526.4	2339
526.6	2342
526.8	2347
527.0	2353
527.2	2358
527.4	2366
527.6	2381
527.8	2388
528.0	2396
528.2	2398
528.4	2400
528.6	2400
528.8	2412
529.0	2428
529.2	2431
529.4	2433
529.6	2441
529.8	2442
530.0	2450
530.2	2461
530.4	2458
530.6	2457
530.8	2461
531.0	2468
531.2	2475
531.4	2479
531.6	2485
531.8	2491
532.0	2498
532.2	2506
532.4	2508
532.6	2503
532.8	2501
533.0	2499
533.2	2504
533.4	2510
533.6	2520
533.8	2523
534.0	2526
534.2	2527
534.4	2530
534.6	2532
534.8	2537
535.0	2535
535.2	2535
535.4	2537
535.6	2542
535.8	2548
536.0	2550
536.2	2550
536.4	2550
536.6	2548
536.8	2552
537.0	2554
537.2	2551
537.4	2556
537.6	2558
537.8	2559
538.0	2565
538.2	2570
538.4	2566
538.6	2568
538.8	2562
539.0	2556
539.2	2556
539.4	2547
539.6	2540
539.8	2540
540.0	2544
540.2	2552
540.4	2559
540.6	2551
540.8	2551
541.0	2550
541.2	2551
541.4	2554
541.6	2556
541.8	2550
542.0	2553
542.2	2551
542.4	2550
542.6	2545
542.8	2543
543.0	2543
543.2	2541
543.4	2539
543.6	2540
543.8	2533
544.0	2528
544.2	2522
544.4	2518
544.6	2521
544.8	2525
545.0	2525
545.2	2525
545.4	2520
545.6	2519
545.8	2518
546.0	2511
546.2	2502
546.4	2498
546.6	2496
546.8	2501
547.0	2506
547.2	2502
547.4	2492
547.6	2480
547.8	2477
548.0	2477
548.2	2479
548.4	2480
548.6	2472
548.8	2465
549.0	2459
549.2	2458
549.4	2454
549.6	2450
549.8	2450
550.0	2445
550.2	2433
550.4	2431
550.6	2426
550.8	2418
551.0	2419
551.2	2415
551.4	2408
551.6	2409
551.8	2414
552.0	2414
552.2	2412
552.4	2411
552.6	2397
552.8	2385
553.0	2376
553.2	2370
553.4	2364
553.6	2360
553.8	2357
554.0	2363
554.2	2370
554.4	2370
554.6	2362
554.8	2348
555.0	2339
555.2	2331
555.4	2334
555.6	2329
555.8	2325
556.0	2322
556.2	2320
556.4	2311
556.6	2308
556.8	2295
557.0	2288
557.2	2281
557.4	2280
557.6	2281
557.8	2273
558.0	2266
558.2	2259
558.4	2253
558.6	2255
558.8	2252
559.0	2245
559.2	2239
559.4	2226
559.6	2222
559.8	2221
560.0	2214
560.2	2212
560.4	2206
560.6	2197
560.8	2193
561.0	2186
561.2	2178
561.4	2170
561.6	2166
561.8	2164
562.0	2165
562.2	2159
562.4	2146
562.6	2133
562.8	2128
563.0	2125
563.2	2126
563.4	2125
563.6	2118
563.8	2107
564.0	2100
564.2	2094
564.4	2090
564.6	2085
564.8	2080
565.0	2071
565.2	2066
565.4	2059
565.6	2052
565.8	2046
566.0	2044
566.2	2041
566.4	2039
566.6	2034
566.8	2027
567.0	2017
567.2	2013
567.4	2004
567.6	1995
567.8	1984
568.0	1973
568.2	1967
568.4	1972
568.6	1969
568.8	1964
569.0	1955
569.2	1947
569.4	1944
569.6	1945
569.8	1943
570.0	1936
570.2	1926
570.4	1916
570.6	1906
570.8	1900
571.0	1895
571.2	1893
571.4	1888
571.6	1877
571.8	1867
572.0	1858
572.2	1851
572.4	1848
572.6	1846
572.8	1839
573.0	1832
573.2	1821
573.4	1814
573.6	1807
573.8	1805
574.0	1802
574.2	1792
574.4	1781
574.6	1776
574.8	1774
575.0	1772
575.2	1761
575.4	1750
575.6	1744
575.8	1742
576.0	1736
576.2	1730
576.4	1722
576.6	1717
576.8	1716
577.0	1714
577.2	1702
577.4	1694
577.6	1685
577.8	1672
578.0	1670
578.2	1671
578.4	1667
578.6	1659
578.8	1646
579.0	1633
579.2	1633
579.4	1635
579.6	1635
579.8	1629
580.0	1624
580.2	1616
580.4	1610
580.6	1604
580.8	1595
581.0	1585
581.2	1581
581.4	1574
581.6	1565
581.8	1554
582.0	1546
582.2	1542
582.4	1538
582.6	1537
582.8	1532
583.0	1528
583.2	1522
583.4	1517
583.6	1505
583.8	1496
584.0	1486
584.2	1479
584.4	1474
584.6	1475
584.8	1471
585.0	1469
585.2	1463
585.4	1454
585.6	1450
585.8	1441
586.0	1433
586.2	1427
586.4	1422
586.6	1416
586.8	1411
587.0	1404
587.2	1402
587.4	1395
587.6	1391
587.8	1385
588.0	1381
588.2	1380
588.4	1377
588.6	1371
588.8	1360
589.0	1355
589.2	1345
589.4	1339
589.6	1330
589.8	1324
590.0	1316
590.2	1311
590.4	1308
590.6	1305
590.8	1300
591.0	1292
591.2	1290
591.4	1281
591.6	1277
591.8	1277
592.0	1271
592.2	1264
592.4	1259
592.6	1254
592.8	1251
593.0	1250
593.2	1244
593.4	1239
593.6	1229
593.8	1220
594.0	1218
594.2	1217
594.4	1216
594.6	1210
594.8	1198
595.0	1184
595.2	1181
595.4	1179
595.6	1177
595.8	1174
596.0	1168
596.2	1159
596.4	1154
596.6	1149
596.8	1148
597.0	1145
597.2	1138
597.4	1130
597.6	1122
597.8	1117
598.0	1117
598.2	1114
598.4	1106
598.6	1098
598.8	1090
599.0	1085
599.2	1082
599.4	1082
599.6	1078
599.8	1074
600.0	1069
600.2	1066
600.4	1061
600.6	1057
600.8	1051
601.0	1042
601.2	1033
601.4	1028
601.6	1027
601.8	1023
602.0	1021
602.2	1016
602.4	1007
602.6	1002
602.8	999.0
603.0	994.4
603.2	991.1
603.4	987.3
603.6	982.9
603.8	980.4
604.0	973.7
604.2	973.0
604.4	968.0
604.6	963.7
604.8	958.5
605.0	954.1
605.2	949.0
605.4	945.1
605.6	939.1
605.8	935.1
606.0	928.2
606.2	923.9
606.4	923.6
606.6	917.2
606.8	913.7
607.0	911.3
607.2	906.1
607.4	900.6
607.6	894.5
607.8	889.2
608.0	886.0
608.2	883.4
608.4	881.9
608.6	880.1
608.8	873.2
609.0	871.7
609.2	868.1
609.4	863.0
609.6	855.7
609.8	849.8
610.0	846.2
610.2	842.5
610.4	839.3
610.6	835.1
610.8	828.4
611.0	823.6
611.2	821.7
611.4	820.5
611.6	817.9
611.8	816.0
612.0	810.9
612.2	806.3
612.4	801.6
612.6	797.9
612.8	793.0
613.0	787.6
613.2	780.2
613.4	774.6
613.6	769.5
613.8	768.7
614.0	769.5
614.2	767.4
614.4	763.1
614.6	754.7
614.8	748.9
615.0	748.0
615.2	744.8
615.4	741.4
615.6	737.5
615.8	731.0
616.0	726.6
616.2	723.8
616.4	719.7
616.6	716.0
616.8	712.9
617.0	709.0
617.2	706.6
617.4	704.5
617.6	704.4
617.8	700.4
618.0	695.5
618.2	689.1
618.4	685.7
618.6	680.3
618.8	678.0
619.0	671.1
619.2	666.9
619.4	664.7
619.6	660.0
619.8	656.8
620.0	653.7
620.2	649.8
620.4	649.4
620.6	649.5
620.8	644.2
621.0	641.9
621.2	636.7
621.4	632.4
621.6	632.1
621.8	630.5
622.0	627.9
622.2	624.4
622.4	618.2
622.6	610.1
622.8	606.7
623.0	605.1
623.2	604.0
623.4	603.1
623.6	600.8
623.8	595.5
624.0	591.5
624.2	589.8
624.4	586.9
624.6	583.4
624.8	578.5
625.0	574.8
625.2	573.8
625.4	572.0
625.6	569.8
625.8	565.6
626.0	560.2
626.2	555.9
626.4	554.9
626.6	550.7
626.8	546.2
627.0	541.7
627.2	539.6
627.4	537.2
627.6	536.1
627.8	531.6
628.0	529.0
628.2	524.6
628.4	524.1
628.6	521.5
628.8	519.6
629.0	516.1
629.2	513.5
629.4	508.3
629.6	505.8
629.8	502.3
630.0	499.8
630.2	497.9
630.4	494.9
630.6	492.1
630.8	490.0
631.0	486.9
631.2	482.7
631.4	479.2
631.6	476.2
631.8	473.3
632.0	472.2
632.2	470.0
632.4	467.7
632.6	465.1
632.8	462.7
633.0	459.5
633.2	458.6
633.4	454.1
633.6	452.6
633.8	449.3
634.0	447.9
634.2	447.2
634.4	444.1
634.6	438.8
634.8	435.0
635.0	433.2
635.2	433.6
635.4	435.3
635.6	433.1
635.8	428.6
636.0	423.6
636.2	419.8
636.4	417.4
636.6	417.9
636.8	417.6
637.0	414.5
637.2	410.7
637.4	404.1
637.6	401.0
637.8	399.1
638.0	398.6
638.2	396.9
638.4	396.0
638.6	393.1
638.8	391.5
639.0	386.7
639.2	383.0
639.4	378.8
639.6	377.2
639.8	376.1
640.0	375.8
640.2	373.6
640.4	371.9
640.6	369.5
640.8	368.8
641.0	366.3
641.2	364.0
641.4	360.6
641.6	358.4
641.8	356.6
642.0	356.3
642.2	353.0
642.4	350.8
642.6	348.3
642.8	346.8
643.0	344.5
643.2	343.1
643.4	338.9
643.6	336.4
643.8	334.5
644.0	332.5
644.2	331.0
644.4	329.8
644.6	326.9
644.8	325.5
645.0	321.6
645.2	317.9
645.4	316.7
645.6	314.6
645.8	315.0
646.0	314.6
646.2	312.5
646.4	309.5
646.6	308.8
646.8	306.6
647.0	306.1
647.2	303.6
647.4	300.8
647.6	297.0
647.8	296.7
648.0	295.1
648.2	292.4
648.4	291.4
648.6	289.7
648.8	286.8
649.0	287.5
649.2	286.4
649.4	283.0
649.6	282.0
649.8	281.2
650.0	278.7
650.2	279.4
650.4	278.4
650.6	275.8
650.8	271.1
651.0	268.9
651.2	266.6
651.4	265.5
651.6	265.3
651.8	265.4
652.0	262.5
652.2	261.4
652.4	258.5
652.6	253.3
652.8	251.3
653.0	250.5
653.2	250.1
653.4	249.2
653.6	250.4
653.8	248.4
654.0	248.1
654.2	245.0
654.4	244.2
654.6	242.1
654.8	242.4
655.0	240.0
655.2	238.2
655.4	234.8
655.6	235.9
655.8	234.6
656.0	233.0
656.2	231.0
656.4	229.6
656.6	227.8
656.8	227.6
657.0	223.8
657.2	220.1
657.4	217.7
657.6	217.1
657.8	217.0
658.0	217.1
658.2	216.1
658.4	215.4
658.6	214.1
658.8	213.1
659.0	211.5
659.2	208.4
659.4	207.1
659.6	206.5
659.8	205.0
660.0	201.9
660.2	199.8
660.4	196.6
660.6	196.9
660.8	196.8
661.0	197.0
661.2	195.9
661.4	194.3
661.6	192.7
661.8	191.8
662.0	190.5
662.2	189.8
662.4	189.3
662.6	185.7
662.8	184.0
663.0	181.3
663.2	179.8
663.4	180.8
663.6	182.2
663.8	180.9
664.0	179.2
664.2	175.5
664.4	173.9
664.6	173.7
664.8	173.8
665.0	173.6
665.2	172.8
665.4	171.0
665.6	170.1
665.8	168.6
666.0	166.8
666.2	165.8
666.4	165.5
666.6	163.7
666.8	162.1
667.0	162.1
667.2	161.0
667.4	160.4
667.6	160.5
667.8	158.5
668.0	157.8
668.2	158.2
668.4	158.3
668.6	156.5
668.8	153.7
669.0	150.7
669.2	149.7
669.4	149.8
669.6	150.4
669.8	150.1
670.0	148.7
670.2	147.3
670.4	145.4
670.6	144.7
670.8	144.3
671.0	144.8
671.2	144.0
671.4	143.2
671.6	141.7
671.8	140.1
672.0	139.6
672.2	138.7
672.4	138.0
672.6	138.0
672.8	137.6
673.0	135.6
673.2	133.1
673.4	131.1
673.6	130.9
673.8	130.3
674.0	130.6
674.2	130.4
674.4	129.1
674.6	128.0
674.8	126.9
675.0	126.0
675.2	126.1
675.4	125.4
675.6	124.8
675.8	123.3
676.0	122.2
676.2	120.3
676.4	119.0
676.6	117.4
676.8	116.5
677.0	116.0
677.2	116.5
677.4	115.5
677.6	114.7
677.8	113.7
678.0	114.2
678.2	114.4
678.4	115.0
678.6	113.9
678.8	111.2
679.0	108.0
679.2	107.5
679.4	107.7
679.6	108.2
679.8	106.8
680.0	107.1
680.2	105.4
680.4	105.2
680.6	105.3
680.8	103.8
681.0	102.0
681.2	101.7
681.4	100.9
681.6	100.4
681.8	99.89
682.0	98.20
682.2	97.33
682.4	96.91
682.6	97.96
682.8	98.71
683.0	97.92
683.2	97.51
683.4	97.19
683.6	96.69
683.8	95.74
684.0	94.18
684.2	92.66
684.4	91.85
684.6	91.30
684.8	91.28
685.0	90.92
685.2	90.29
685.4	90.45
685.6	89.16
685.8	88.63
686.0	88.38
686.2	88.89
686.4	87.77
686.6	86.68
686.8	86.04
687.0	85.33
687.2	84.06
687.4	84.30
687.6	83.31
687.8	83.01
688.0	83.24
688.2	82.99
688.4	81.81
688.6	81.33
688.8	81.31
689.0	81.08
689.2	79.75
689.4	78.97
689.6	77.14
689.8	76.10
690.0	76.25
690.2	77.16
690.4	76.85
690.6	76.97
690.8	76.68
691.0	75.52
691.2	74.56
691.4	73.48
691.6	72.40
691.8	72.38
692.0	72.80
692.2	72.10
692.4	72.10
692.6	72.20
692.8	71.61
693.0	70.76
693.2	69.57
693.4	69.27
693.6	69.23
693.8	69.83
694.0	69.63
694.2	68.56
694.4	68.04
694.6	67.79
694.8	67.13
695.0	66.58
695.2	66.39
695.4	66.24
695.6	65.77
695.8	65.31
696.0	64.77
696.2	64.28
696.4	63.28
696.6	62.89
696.8	62.56
697.0	62.48
697.2	62.58
697.4	62.04
697.6	60.97
697.8	60.60
698.0	61.35
698.2	61.01
698.4	61.57
698.6	59.82
698.8	59.11
699.0	57.98
699.2	57.93
699.4	58.20
699.6	58.92
699.8	58.09
700.0	58.89
700.2	57.81
700.4	57.36
700.6	57.40
700.8	56.85
701.0	56.61
701.2	56.17
701.4	55.87
701.6	55.53
701.8	55.21
702.0	54.84
702.2	54.69
702.4	53.89
702.6	54.17
702.8	53.71
703.0	53.60
703.2	52.68
703.4	52.39
703.6	52.52
703.8	52.49
704.0	51.56
704.2	51.15
704.4	50.45
704.6	50.20
704.8	49.93
705.0	49.36
705.2	48.38
705.4	48.45
705.6	48.85
705.8	48.82
706.0	48.21
706.2	47.96
706.4	47.60
706.6	47.60
706.8	47.17
707.0	47.26
707.2	46.97
707.4	46.78
707.6	46.10
707.8	45.28
708.0	44.36
708.2	44.95
708.4	45.58
708.6	45.76
708.8	45.88
709.0	45.00
709.2	44.18
709.4	44.36
709.6	43.84
709.8	43.24
710.0	42.71
710.2	42.05
710.4	41.82
710.6	42.26
710.8	41.83
711.0	41.41
711.2	41.00
711.4	41.23
711.6	41.50
711.8	41.76
712.0	41.26
712.2	40.72
712.4	40.04
712.6	39.85
712.8	39.54
713.0	39.55
713.2	39.76
713.4	40.02
713.6	39.19
713.8	38.79
714.0	38.19
714.2	38.29
714.4	38.04
714.6	37.88
714.8	36.98
715.0	36.92
715.2	36.82
715.4	36.52
715.6	36.14
715.8	36.27
716.0	35.90
716.2	35.66
716.4	35.36
716.6	35.34
716.8	35.20
717.0	35.44
717.2	34.99
717.4	34.18
717.6	33.73
717.8	33.78
718.0	33.36
718.2	33.38
718.4	32.81
718.6	32.79
718.8	32.38
719.0	32.57
719.2	32.63
719.4	32.49
719.6	31.88
719.8	31.88
720.0	31.38
720.2	31.91
720.4	31.51
720.6	31.02
720.8	30.67
721.0	30.04
721.2	29.69
721.4	29.66
721.6	29.19
721.8	29.20
722.0	29.19
722.2	29.30
722.4	29.42
722.6	29.22
722.8	28.83
723.0	28.53
723.2	27.73
723.4	27.92
723.6	27.94
723.8	28.09
724.0	27.88
724.2	28.30
724.4	28.19
724.6	28.27
724.8	27.91
725.0	27.13
725.2	25.92
725.4	25.90
725.6	25.79
725.8	25.74
726.0	26.04
726.2	25.67
726.4	25.48
726.6	25.18
726.8	25.35
727.0	24.53
727.2	24.30
727.4	24.29
727.6	24.37
727.8	24.27
728.0	24.69
728.2	24.49
728.4	24.50
728.6	24.66
728.8	24.22
729.0	23.66
729.2	22.86
729.4	22.60
729.6	22.61
729.8	22.68
730.0	22.62
730.2	22.21
730.4	21.90
730.6	21.86
730.8	21.70
731.0	22.28
731.2	22.34
731.4	21.82
731.6	21.60
731.8	21.36
732.0	20.59
732.2	20.76
732.4	20.42
732.6	20.21
732.8	20.16
733.0	20.30
733.2	19.93
733.4	19.56
733.6	19.25
733.8	18.94
734.0	18.56
734.2	18.97
734.4	19.13
734.6	19.45
734.8	19.74
735.0	18.88
735.2	18.23
735.4	18.07
735.6	17.63
735.8	18.03
736.0	18.50
736.2	18.27
736.4	18.58
736.6	18.35
736.8	17.73
737.0	17.29
737.2	17.04
737.4	16.98
737.6	17.46
737.8	17.58
738.0	17.60
738.2	17.06
738.4	16.78
738.6	16.49
738.8	16.83
739.0	16.65
739.2	16.30
739.4	16.07
739.6	16.44
739.8	16.41
740.0	16.50
740.2	15.75
740.4	15.30
740.6	15.53
740.8	16.02
741.0	16.17
741.2	16.01
741.4	15.68
741.6	15.72
741.8	15.76
742.0	15.18
742.2	14.63
742.4	14.03
742.6	14.00
742.8	13.98
743.0	13.64
743.2	13.63
743.4	14.09
743.6	14.35
743.8	14.61
744.0	14.43
744.2	13.76
744.4	13.76
744.6	13.38
744.8	13.17
745.0	13.18
745.2	13.33
745.4	13.29
745.6	13.45
745.8	12.69
746.0	12.57
746.2	12.81
746.4	13.15
746.6	13.34
746.8	13.28
747.0	13.14
747.2	12.90
747.4	12.45
747.6	12.32
747.8	12.35
748.0	11.76
748.2	12.14
748.4	11.84
748.6	11.40
748.8	11.08
749.0	11.20
749.2	11.41
749.4	11.92
749.6	11.83
749.8	11.53
750.0	10.77
750.2	10.68
750.4	11.11
750.6	11.16
750.8	11.00
751.0	10.92
751.2	10.51
751.4	10.54
751.6	10.81
751.8	11.09
752.0	11.03
752.2	10.99
752.4	10.71
752.6	10.34
752.8	10.67
753.0	10.73
753.2	10.63
753.4	10.25
753.6	10.30
753.8	10.25
754.0	10.68
754.2	10.63
754.4	10.19
754.6	9.755
754.8	9.833
755.0	9.751
755.2	9.856
755.4	9.706
755.6	9.511
755.8	9.368
756.0	9.315
756.2	9.312
756.4	9.380
756.6	9.032
756.8	9.133
757.0	8.963
757.2	8.918
757.4	9.382
757.6	9.556
757.8	9.490
758.0	9.416
758.2	9.115
758.4	8.830
758.6	8.771
758.8	8.555
759.0	8.494
759.2	8.288
759.4	8.560
759.6	8.693
759.8	8.557
760.0	8.367
760.2	7.759
760.4	7.309
760.6	7.375
760.8	7.343
761.0	7.537
761.2	7.915
761.4	7.923
761.6	8.223
761.8	8.083
762.0	8.137
762.2	7.912
762.4	8.096
762.6	8.230
762.8	8.221
763.0	7.838
763.2	7.822
763.4	7.660
763.6	7.697
763.8	7.959
764.0	7.818
764.2	7.582
764.4	7.423
764.6	7.411
764.8	7.185
765.0	7.098
765.2	7.108
765.4	7.008
765.6	6.847
765.8	6.808
766.0	6.905
766.2	6.838
766.4	7.204
766.6	7.029
766.8	6.754
767.0	6.535
767.2	6.473
767.4	6.368
767.6	6.359
767.8	6.474
768.0	6.718
768.2	6.883
768.4	6.710
768.6	6.342
768.8	5.839
769.0	5.878
769.2	6.089
769.4	6.655
769.6	6.948
769.8	6.520
770.0	6.352
770.2	6.278
770.4	6.316
770.6	6.459
770.8	6.672
771.0	6.207
771.2	6.241
771.4	6.453
771.6	6.369
771.8	6.044
772.0	6.144
772.2	5.859
772.4	5.818
772.6	5.903
772.8	5.996
773.0	5.932
773.2	6.128
773.4	5.983
773.6	5.791
773.8	5.905
774.0	6.179
774.2	5.806
774.4	5.864
774.6	5.678
774.8	5.474
775.0	5.690
775.2	5.707
775.4	5.590
775.6	5.788
775.8	5.782
776.0	5.738
776.2	5.409
776.4	5.268
776.6	5.205
776.8	5.278
777.0	5.667
777.2	5.731
777.4	5.572
777.6	5.570
777.8	5.336
778.0	5.326
778.2	5.547
778.4	5.221
778.6	5.018
778.8	5.061
779.0	4.923
779.2	5.319
779.4	5.485
779.6	5.289
779.8	5.127
780.0	5.148
780.2	5.002
780.4	5.196
780.6	5.104
780.8	5.024
781.0	4.912
781.2	4.814
781.4	4.753
781.6	4.624
781.8	4.480
782.0	4.508
782.2	4.577
782.4	4.572
782.6	4.549
782.8	4.366
783.0	4.289
783.2	4.454
783.4	4.503
783.6	4.479
783.8	4.496
784.0	4.668
784.2	4.836
784.4	5.034
784.6	4.932
784.8	4.727
785.0	4.625
785.2	4.641
785.4	4.597
785.6	4.657
785.8	4.704
786.0	4.677
786.2	4.601
786.4	4.504
786.6	4.357
786.8	4.332
787.0	4.559
787.2	4.661
787.4	4.624
787.6	4.786
787.8	4.808
788.0	4.649
788.2	4.506
788.4	4.137
788.6	4.106
788.8	4.201
789.0	4.492
789.2	4.367
789.4	4.347
789.6	4.085
789.8	4.109
790.0	3.959
790.2	4.055
790.4	4.244
790.6	4.577
790.8	4.527
791.0	4.426
791.2	4.196
791.4	3.854
791.6	3.681
791.8	3.663
792.0	3.772
792.2	4.012
792.4	4.291
792.6	4.299
792.8	4.175
793.0	4.331
793.2	4.417
793.4	4.612
793.6	4.541
793.8	4.353
794.0	4.272
794.2	4.094
794.4	3.996
794.6	4.108
794.8	4.038
795.0	4.145
795.2	4.211
795.4	4.209
795.6	4.168
795.8	4.078
796.0	4.065
796.2	4.156
796.4	3.886
796.6	3.919
796.8	3.916
797.0	4.051
797.2	4.258
797.4	4.359
797.6	4.099
797.8	3.943
798.0	4.029
798.2	4.280
798.4	4.347
798.6	4.406
798.8	4.208
799.0	3.981
799.2	3.840
799.4	3.831
799.6	3.764
799.8	3.825
800.0	4.101

