Sample:	'20211010A(EM)
File name:	R-CDS-CHO-600-S2- 20h.FDS
Run date:	'08:18:57, 03/23/2023
Operator:	Administrator
Comment:	'

Instrument
Model:	F-4700 FL Spectrophotometer
Serial number:	2019-001
ROM Version:	5J24010 00

Instrument parameters
Measurement type:	Wavelength scan
Scan mode:	Emission
Data mode:	Fluorescence
EX WL:	530.0 nm
EM  Start WL:	550.0 nm
EM  End WL:	900.0 nm
Scan speed:	1200 nm/min
Delay:	0.0 s
EX Slit:	10.0 nm
EM Slit:	10.0 nm
PMT Voltage:	640 V
Response:	0.002 s
Corrected spectra:	Off
Shutter control:	On

Processing performed
Savitsky-Golay smoothed
Smoothing order:	3
Number of points:	7
Number of times:	1

Peak integration
Integration method:	Rectangular
Sensitivity:	1
Threshold:	1.000

Peaks
No.	Start(nm)	Apex(nm)	End(nm)	Height(Data)	Valley(nm)	Valley(Data)
1	550.0	626.6	629.0	4377	629.0	4347
2	629.0	630.2	630.8	4396	630.8	4372
3	630.8	631.4	634.0	4395	634.0	4347
4	634.0	635.0	772.6	4368	772.6	57.61
5	772.6	773.6	775.2	60.35	775.2	52.87
6	775.2	775.8	781.4	54.39	781.4	42.72
7	781.4	782.8	790.6	45.95	790.6	34.89
8	790.6	791.6	795.8	36.42	795.8	31.94
9	795.8	798.4	806.4	34.55	806.4	24.57
10	806.4	807.6	817.0	26.13	817.0	18.41
11	817.0	817.6	819.2	20.24	819.2	17.46
12	819.2	820.0	822.2	18.72	822.2	15.84
13	822.2	823.6	824.8	16.91	824.8	13.50
14	824.8	825.6	836.4	16.20	836.4	8.541
15	836.4	837.0	845.6	9.721	845.6	6.324
16	845.6	846.8	848.6	7.616	848.6	5.705
17	848.6	849.4	855.0	7.200	855.0	4.804
18	855.0	856.2	857.2	5.865	857.2	4.700
19	857.2	858.6	859.2	5.845	859.2	4.568
20	859.2	861.8	864.6	5.877	864.6	4.525
21	864.6	866.2	867.0	5.967	867.0	4.826
22	867.0	868.6	869.6	5.985	869.6	4.586
23	869.6	872.8	875.0	6.103	875.0	4.459
24	875.0	876.0	876.8	5.740	876.8	4.513
25	876.8	883.2	886.8	5.695	886.8	4.314
26	886.8	889.4	891.2	5.819	891.2	4.569
27	891.2	893.4	900.0	5.660	900.0	4.886

Data points
nm	Data
550.0	1227
550.2	1209
550.4	1207
550.6	1216
550.8	1232
551.0	1236
551.2	1244
551.4	1250
551.6	1262
551.8	1272
552.0	1287
552.2	1293
552.4	1297
552.6	1304
552.8	1311
553.0	1317
553.2	1330
553.4	1337
553.6	1340
553.8	1346
554.0	1341
554.2	1348
554.4	1361
554.6	1366
554.8	1376
555.0	1383
555.2	1382
555.4	1392
555.6	1404
555.8	1412
556.0	1421
556.2	1424
556.4	1430
556.6	1440
556.8	1447
557.0	1456
557.2	1464
557.4	1471
557.6	1479
557.8	1484
558.0	1494
558.2	1507
558.4	1516
558.6	1525
558.8	1523
559.0	1530
559.2	1542
559.4	1554
559.6	1560
559.8	1570
560.0	1569
560.2	1566
560.4	1566
560.6	1575
560.8	1591
561.0	1615
561.2	1623
561.4	1623
561.6	1625
561.8	1631
562.0	1640
562.2	1647
562.4	1653
562.6	1660
562.8	1670
563.0	1689
563.2	1705
563.4	1720
563.6	1726
563.8	1730
564.0	1737
564.2	1748
564.4	1748
564.6	1756
564.8	1760
565.0	1773
565.2	1788
565.4	1800
565.6	1797
565.8	1800
566.0	1817
566.2	1827
566.4	1838
566.6	1846
566.8	1845
567.0	1854
567.2	1864
567.4	1873
567.6	1879
567.8	1890
568.0	1899
568.2	1922
568.4	1933
568.6	1947
568.8	1952
569.0	1961
569.2	1962
569.4	1969
569.6	1978
569.8	1990
570.0	1999
570.2	2010
570.4	2013
570.6	2017
570.8	2030
571.0	2049
571.2	2064
571.4	2086
571.6	2093
571.8	2094
572.0	2097
572.2	2105
572.4	2109
572.6	2123
572.8	2137
573.0	2150
573.2	2162
573.4	2175
573.6	2176
573.8	2185
574.0	2197
574.2	2208
574.4	2214
574.6	2229
574.8	2234
575.0	2239
575.2	2243
575.4	2255
575.6	2267
575.8	2282
576.0	2295
576.2	2309
576.4	2314
576.6	2329
576.8	2339
577.0	2348
577.2	2352
577.4	2369
577.6	2370
577.8	2386
578.0	2401
578.2	2420
578.4	2422
578.6	2424
578.8	2418
579.0	2423
579.2	2433
579.4	2451
579.6	2470
579.8	2479
580.0	2490
580.2	2503
580.4	2515
580.6	2525
580.8	2538
581.0	2543
581.2	2549
581.4	2560
581.6	2571
581.8	2578
582.0	2589
582.2	2600
582.4	2613
582.6	2631
582.8	2645
583.0	2656
583.2	2667
583.4	2675
583.6	2675
583.8	2686
584.0	2689
584.2	2696
584.4	2711
584.6	2731
584.8	2746
585.0	2765
585.2	2769
585.4	2767
585.6	2775
585.8	2786
586.0	2800
586.2	2819
586.4	2834
586.6	2840
586.8	2853
587.0	2865
587.2	2875
587.4	2889
587.6	2898
587.8	2895
588.0	2908
588.2	2924
588.4	2932
588.6	2947
588.8	2960
589.0	2966
589.2	2975
589.4	2984
589.6	2983
589.8	2986
590.0	2996
590.2	3010
590.4	3021
590.6	3035
590.8	3048
591.0	3056
591.2	3074
591.4	3090
591.6	3105
591.8	3109
592.0	3114
592.2	3125
592.4	3135
592.6	3146
592.8	3163
593.0	3172
593.2	3170
593.4	3185
593.6	3192
593.8	3198
594.0	3207
594.2	3216
594.4	3222
594.6	3240
594.8	3259
595.0	3267
595.2	3271
595.4	3285
595.6	3294
595.8	3301
596.0	3313
596.2	3325
596.4	3343
596.6	3363
596.8	3365
597.0	3366
597.2	3374
597.4	3392
597.6	3401
597.8	3412
598.0	3422
598.2	3422
598.4	3432
598.6	3444
598.8	3446
599.0	3458
599.2	3477
599.4	3481
599.6	3493
599.8	3498
600.0	3508
600.2	3524
600.4	3542
600.6	3551
600.8	3554
601.0	3554
601.2	3555
601.4	3564
601.6	3572
601.8	3583
602.0	3600
602.2	3617
602.4	3628
602.6	3630
602.8	3627
603.0	3632
603.2	3639
603.4	3656
603.6	3676
603.8	3679
604.0	3684
604.2	3694
604.4	3694
604.6	3707
604.8	3718
605.0	3722
605.2	3726
605.4	3734
605.6	3757
605.8	3776
606.0	3786
606.2	3796
606.4	3806
606.6	3795
606.8	3817
607.0	3828
607.2	3834
607.4	3843
607.6	3844
607.8	3837
608.0	3846
608.2	3851
608.4	3858
608.6	3864
608.8	3860
609.0	3886
609.2	3906
609.4	3919
609.6	3926
609.8	3924
610.0	3929
610.2	3947
610.4	3962
610.6	3965
610.8	3960
611.0	3962
611.2	3975
611.4	3988
611.6	4003
611.8	4014
612.0	4018
612.2	4034
612.4	4030
612.6	4034
612.8	4036
613.0	4045
613.2	4043
613.4	4052
613.6	4047
613.8	4055
614.0	4064
614.2	4078
614.4	4080
614.6	4083
614.8	4085
615.0	4092
615.2	4106
615.4	4133
615.6	4137
615.8	4148
616.0	4160
616.2	4167
616.4	4172
616.6	4176
616.8	4163
617.0	4164
617.2	4168
617.4	4180
617.6	4186
617.8	4187
618.0	4180
618.2	4177
618.4	4176
618.6	4190
618.8	4201
619.0	4210
619.2	4221
619.4	4214
619.6	4215
619.8	4221
620.0	4230
620.2	4240
620.4	4249
620.6	4247
620.8	4262
621.0	4284
621.2	4287
621.4	4281
621.6	4268
621.8	4264
622.0	4272
622.2	4289
622.4	4300
622.6	4308
622.8	4313
623.0	4308
623.2	4303
623.4	4304
623.6	4314
623.8	4317
624.0	4332
624.2	4335
624.4	4337
624.6	4334
624.8	4335
625.0	4337
625.2	4347
625.4	4349
625.6	4341
625.8	4337
626.0	4346
626.2	4369
626.4	4375
626.6	4377
626.8	4369
627.0	4366
627.2	4363
627.4	4370
627.6	4371
627.8	4360
628.0	4360
628.2	4363
628.4	4360
628.6	4353
628.8	4355
629.0	4347
629.2	4348
629.4	4356
629.6	4365
629.8	4386
630.0	4392
630.2	4396
630.4	4384
630.6	4379
630.8	4372
631.0	4381
631.2	4386
631.4	4395
631.6	4387
631.8	4393
632.0	4390
632.2	4371
632.4	4368
632.6	4377
632.8	4374
633.0	4382
633.2	4382
633.4	4362
633.6	4351
633.8	4356
634.0	4347
634.2	4363
634.4	4361
634.6	4364
634.8	4363
635.0	4368
635.2	4357
635.4	4352
635.6	4335
635.8	4332
636.0	4330
636.2	4325
636.4	4321
636.6	4313
636.8	4316
637.0	4314
637.2	4308
637.4	4298
637.6	4293
637.8	4289
638.0	4281
638.2	4281
638.4	4274
638.6	4266
638.8	4260
639.0	4254
639.2	4238
639.4	4229
639.6	4226
639.8	4216
640.0	4218
640.2	4223
640.4	4217
640.6	4214
640.8	4201
641.0	4188
641.2	4180
641.4	4175
641.6	4163
641.8	4164
642.0	4142
642.2	4134
642.4	4122
642.6	4118
642.8	4109
643.0	4099
643.2	4085
643.4	4091
643.6	4087
643.8	4077
644.0	4074
644.2	4062
644.4	4040
644.6	4027
644.8	4016
645.0	4008
645.2	4015
645.4	4013
645.6	3991
645.8	3964
646.0	3960
646.2	3958
646.4	3949
646.6	3940
646.8	3920
647.0	3899
647.2	3899
647.4	3896
647.6	3884
647.8	3877
648.0	3871
648.2	3860
648.4	3847
648.6	3827
648.8	3802
649.0	3785
649.2	3775
649.4	3769
649.6	3756
649.8	3749
650.0	3737
650.2	3729
650.4	3718
650.6	3705
650.8	3686
651.0	3674
651.2	3655
651.4	3646
651.6	3643
651.8	3633
652.0	3615
652.2	3603
652.4	3586
652.6	3569
652.8	3563
653.0	3548
653.2	3527
653.4	3513
653.6	3490
653.8	3476
654.0	3464
654.2	3451
654.4	3440
654.6	3437
654.8	3416
655.0	3412
655.2	3400
655.4	3381
655.6	3369
655.8	3354
656.0	3330
656.2	3307
656.4	3297
656.6	3283
656.8	3267
657.0	3247
657.2	3229
657.4	3216
657.6	3214
657.8	3210
658.0	3197
658.2	3177
658.4	3156
658.6	3139
658.8	3117
659.0	3100
659.2	3084
659.4	3071
659.6	3054
659.8	3041
660.0	3031
660.2	3026
660.4	3017
660.6	2998
660.8	2959
661.0	2942
661.2	2935
661.4	2931
661.6	2927
661.8	2908
662.0	2877
662.2	2871
662.4	2858
662.6	2842
662.8	2819
663.0	2799
663.2	2781
663.4	2774
663.6	2762
663.8	2750
664.0	2733
664.2	2721
664.4	2707
664.6	2696
664.8	2681
665.0	2664
665.2	2648
665.4	2644
665.6	2628
665.8	2612
666.0	2596
666.2	2574
666.4	2562
666.6	2550
666.8	2534
667.0	2512
667.2	2503
667.4	2486
667.6	2483
667.8	2465
668.0	2455
668.2	2441
668.4	2426
668.6	2405
668.8	2401
669.0	2382
669.2	2371
669.4	2362
669.6	2339
669.8	2317
670.0	2304
670.2	2283
670.4	2275
670.6	2262
670.8	2251
671.0	2242
671.2	2234
671.4	2222
671.6	2217
671.8	2195
672.0	2184
672.2	2170
672.4	2144
672.6	2122
672.8	2108
673.0	2093
673.2	2089
673.4	2080
673.6	2062
673.8	2050
674.0	2035
674.2	2027
674.4	2020
674.6	2008
674.8	1997
675.0	1980
675.2	1954
675.4	1933
675.6	1922
675.8	1915
676.0	1920
676.2	1908
676.4	1891
676.6	1878
676.8	1870
677.0	1852
677.2	1844
677.4	1827
677.6	1811
677.8	1795
678.0	1780
678.2	1763
678.4	1757
678.6	1754
678.8	1748
679.0	1732
679.2	1715
679.4	1699
679.6	1691
679.8	1690
680.0	1680
680.2	1666
680.4	1653
680.6	1632
680.8	1619
681.0	1608
681.2	1597
681.4	1589
681.6	1583
681.8	1570
682.0	1559
682.2	1549
682.4	1545
682.6	1537
682.8	1531
683.0	1515
683.2	1497
683.4	1486
683.6	1476
683.8	1465
684.0	1466
684.2	1456
684.4	1448
684.6	1443
684.8	1435
685.0	1421
685.2	1416
685.4	1399
685.6	1389
685.8	1385
686.0	1381
686.2	1369
686.4	1363
686.6	1351
686.8	1342
687.0	1334
687.2	1320
687.4	1304
687.6	1296
687.8	1289
688.0	1284
688.2	1278
688.4	1264
688.6	1248
688.8	1236
689.0	1233
689.2	1232
689.4	1228
689.6	1224
689.8	1216
690.0	1208
690.2	1197
690.4	1182
690.6	1167
690.8	1163
691.0	1159
691.2	1155
691.4	1142
691.6	1133
691.8	1124
692.0	1121
692.2	1115
692.4	1112
692.6	1109
692.8	1110
693.0	1102
693.2	1092
693.4	1080
693.6	1069
693.8	1056
694.0	1053
694.2	1049
694.4	1048
694.6	1045
694.8	1038
695.0	1024
695.2	1012
695.4	1003
695.6	998.9
695.8	994.3
696.0	994.4
696.2	992.6
696.4	985.5
696.6	977.8
696.8	969.7
697.0	956.8
697.2	949.9
697.4	942.7
697.6	938.2
697.8	940.5
698.0	937.7
698.2	933.8
698.4	926.6
698.6	916.8
698.8	911.6
699.0	908.3
699.2	904.4
699.4	900.9
699.6	896.5
699.8	889.9
700.0	882.8
700.2	873.3
700.4	864.2
700.6	858.6
700.8	861.1
701.0	864.4
701.2	863.0
701.4	858.9
701.6	845.6
701.8	838.7
702.0	836.0
702.2	831.1
702.4	822.9
702.6	817.3
702.8	810.3
703.0	807.1
703.2	804.1
703.4	801.5
703.6	797.4
703.8	792.0
704.0	786.8
704.2	780.7
704.4	774.6
704.6	773.7
704.8	773.3
705.0	768.9
705.2	763.1
705.4	754.7
705.6	748.9
705.8	743.9
706.0	741.1
706.2	733.3
706.4	725.0
706.6	717.5
706.8	718.3
707.0	715.7
707.2	713.9
707.4	707.9
707.6	703.4
707.8	699.8
708.0	697.9
708.2	693.4
708.4	687.6
708.6	678.2
708.8	674.7
709.0	671.0
709.2	668.4
709.4	667.8
709.6	666.1
709.8	659.0
710.0	653.5
710.2	642.9
710.4	637.9
710.6	632.1
710.8	632.0
711.0	633.8
711.2	631.9
711.4	627.2
711.6	622.6
711.8	610.9
712.0	603.3
712.2	602.4
712.4	599.2
712.6	596.2
712.8	594.4
713.0	586.0
713.2	582.5
713.4	582.8
713.6	581.0
713.8	577.1
714.0	575.1
714.2	563.4
714.4	561.5
714.6	560.0
714.8	561.2
715.0	561.3
715.2	557.9
715.4	547.7
715.6	541.8
715.8	533.7
716.0	531.0
716.2	528.7
716.4	526.2
716.6	524.2
716.8	524.7
717.0	519.7
717.2	516.5
717.4	512.2
717.6	506.8
717.8	504.8
718.0	504.5
718.2	499.4
718.4	494.3
718.6	490.0
718.8	486.9
719.0	485.3
719.2	481.2
719.4	473.1
719.6	465.4
719.8	460.3
720.0	458.0
720.2	457.9
720.4	457.2
720.6	455.9
720.8	453.0
721.0	448.8
721.2	445.6
721.4	440.0
721.6	433.3
721.8	430.4
722.0	427.1
722.2	420.6
722.4	420.2
722.6	415.8
722.8	412.1
723.0	412.5
723.2	411.5
723.4	406.7
723.6	405.5
723.8	401.2
724.0	398.4
724.2	397.8
724.4	391.9
724.6	386.4
724.8	382.5
725.0	379.4
725.2	378.5
725.4	378.5
725.6	377.1
725.8	374.0
726.0	370.7
726.2	363.4
726.4	357.9
726.6	351.0
726.8	350.6
727.0	351.0
727.2	351.6
727.4	347.0
727.6	342.6
727.8	336.0
728.0	334.8
728.2	336.4
728.4	338.0
728.6	338.5
728.8	339.2
729.0	337.6
729.2	331.0
729.4	324.9
729.6	318.5
729.8	310.6
730.0	305.0
730.2	305.2
730.4	302.1
730.6	305.4
730.8	306.9
731.0	305.4
731.2	301.8
731.4	300.1
731.6	293.8
731.8	294.1
732.0	291.5
732.2	295.4
732.4	292.0
732.6	287.3
732.8	278.9
733.0	275.6
733.2	272.1
733.4	275.0
733.6	269.6
733.8	268.9
734.0	268.9
734.2	265.3
734.4	262.8
734.6	258.8
734.8	253.0
735.0	252.1
735.2	256.6
735.4	255.7
735.6	255.3
735.8	250.4
736.0	246.0
736.2	242.4
736.4	240.2
736.6	237.8
736.8	238.7
737.0	236.1
737.2	233.7
737.4	232.1
737.6	229.4
737.8	227.2
738.0	228.7
738.2	228.5
738.4	226.1
738.6	224.5
738.8	223.2
739.0	220.8
739.2	220.1
739.4	221.9
739.6	219.0
739.8	217.3
740.0	213.5
740.2	210.4
740.4	208.9
740.6	207.9
740.8	204.9
741.0	204.9
741.2	203.0
741.4	201.8
741.6	202.3
741.8	199.7
742.0	195.8
742.2	193.8
742.4	191.2
742.6	188.8
742.8	189.4
743.0	188.5
743.2	186.0
743.4	184.6
743.6	182.6
743.8	180.5
744.0	180.8
744.2	179.0
744.4	177.1
744.6	177.7
744.8	177.3
745.0	175.8
745.2	174.4
745.4	170.9
745.6	169.2
745.8	170.0
746.0	168.4
746.2	165.1
746.4	164.5
746.6	162.5
746.8	162.3
747.0	161.6
747.2	160.5
747.4	158.6
747.6	160.3
747.8	158.0
748.0	157.2
748.2	155.7
748.4	151.9
748.6	148.4
748.8	147.9
749.0	144.1
749.2	144.2
749.4	146.0
749.6	143.9
749.8	142.2
750.0	142.8
750.2	140.7
750.4	139.4
750.6	137.1
750.8	134.4
751.0	132.9
751.2	134.7
751.4	134.4
751.6	132.8
751.8	131.0
752.0	130.5
752.2	130.1
752.4	129.7
752.6	127.1
752.8	125.9
753.0	125.4
753.2	127.2
753.4	126.5
753.6	122.1
753.8	119.1
754.0	118.1
754.2	117.4
754.4	118.6
754.6	119.0
754.8	117.4
755.0	116.7
755.2	117.2
755.4	116.0
755.6	116.0
755.8	114.0
756.0	112.6
756.2	110.8
756.4	110.4
756.6	110.6
756.8	111.4
757.0	109.8
757.2	107.7
757.4	105.8
757.6	104.3
757.8	105.3
758.0	105.6
758.2	106.3
758.4	105.3
758.6	103.3
758.8	100.7
759.0	100.4
759.2	101.1
759.4	100.8
759.6	101.2
759.8	98.87
760.0	98.38
760.2	97.51
760.4	95.62
760.6	93.66
760.8	92.89
761.0	92.32
761.2	92.77
761.4	91.85
761.6	90.49
761.8	89.87
762.0	89.61
762.2	89.96
762.4	89.47
762.6	89.18
762.8	87.71
763.0	84.99
763.2	84.31
763.4	84.31
763.6	84.98
763.8	85.31
764.0	84.23
764.2	82.71
764.4	82.34
764.6	82.18
764.8	81.86
765.0	79.30
765.2	78.52
765.4	79.66
765.6	78.31
765.8	78.34
766.0	79.05
766.2	76.89
766.4	76.63
766.6	77.28
766.8	75.95
767.0	75.03
767.2	74.58
767.4	72.95
767.6	73.01
767.8	72.61
768.0	72.35
768.2	71.10
768.4	70.07
768.6	67.90
768.8	68.45
769.0	68.10
769.2	67.19
769.4	66.52
769.6	66.28
769.8	65.45
770.0	66.30
770.2	66.46
770.4	66.06
770.6	64.25
770.8	63.81
771.0	64.00
771.2	64.98
771.4	64.95
771.6	64.32
771.8	61.92
772.0	60.96
772.2	59.50
772.4	58.78
772.6	57.61
772.8	58.07
773.0	58.47
773.2	59.20
773.4	59.91
773.6	60.35
773.8	59.77
774.0	59.44
774.2	57.95
774.4	56.38
774.6	55.71
774.8	55.13
775.0	53.82
775.2	52.87
775.4	53.03
775.6	53.50
775.8	54.39
776.0	54.38
776.2	53.91
776.4	53.36
776.6	53.47
776.8	53.24
777.0	53.11
777.2	52.13
777.4	52.07
777.6	51.26
777.8	50.42
778.0	50.03
778.2	50.10
778.4	49.22
778.6	50.11
778.8	49.55
779.0	49.51
779.2	48.89
779.4	49.23
779.6	48.18
779.8	48.35
780.0	48.42
780.2	47.65
780.4	47.32
780.6	47.01
780.8	45.37
781.0	44.44
781.2	44.32
781.4	42.72
781.6	43.58
781.8	43.18
782.0	43.83
782.2	43.74
782.4	44.61
782.6	45.17
782.8	45.95
783.0	44.55
783.2	43.45
783.4	41.50
783.6	40.48
783.8	41.37
784.0	41.73
784.2	40.68
784.4	40.59
784.6	41.30
784.8	40.93
785.0	41.86
785.2	40.89
785.4	40.38
785.6	40.60
785.8	40.96
786.0	39.97
786.2	39.67
786.4	38.84
786.6	38.50
786.8	37.52
787.0	38.56
787.2	38.51
787.4	39.21
787.6	39.33
787.8	38.31
788.0	37.66
788.2	37.55
788.4	37.38
788.6	36.94
788.8	36.96
789.0	36.08
789.2	36.28
789.4	35.40
789.6	36.55
789.8	36.78
790.0	37.38
790.2	36.17
790.4	35.56
790.6	34.89
790.8	35.51
791.0	35.87
791.2	35.79
791.4	36.22
791.6	36.42
791.8	35.91
792.0	35.63
792.2	35.30
792.4	34.56
792.6	35.21
792.8	35.16
793.0	34.70
793.2	34.79
793.4	34.86
793.6	33.65
793.8	33.94
794.0	34.34
794.2	34.29
794.4	34.24
794.6	33.34
794.8	32.78
795.0	33.03
795.2	32.65
795.4	32.48
795.6	32.55
795.8	31.94
796.0	32.87
796.2	32.58
796.4	32.68
796.6	32.72
796.8	32.86
797.0	33.19
797.2	33.48
797.4	33.10
797.6	33.40
797.8	32.96
798.0	33.06
798.2	34.53
798.4	34.55
798.6	33.95
798.8	31.86
799.0	30.30
799.2	30.36
799.4	31.68
799.6	31.79
799.8	31.57
800.0	30.34
800.2	30.00
800.4	29.85
800.6	29.57
800.8	29.55
801.0	29.92
801.2	30.35
801.4	30.38
801.6	29.14
801.8	28.07
802.0	28.53
802.2	29.96
802.4	30.18
802.6	29.76
802.8	29.06
803.0	27.62
803.2	28.42
803.4	28.81
803.6	28.05
803.8	28.08
804.0	27.92
804.2	27.52
804.4	27.77
804.6	26.79
804.8	25.76
805.0	25.59
805.2	25.60
805.4	26.75
805.6	27.04
805.8	26.48
806.0	25.67
806.2	24.81
806.4	24.57
806.6	25.26
806.8	25.72
807.0	25.40
807.2	25.84
807.4	25.92
807.6	26.13
807.8	25.69
808.0	25.72
808.2	25.32
808.4	25.35
808.6	26.04
808.8	26.28
809.0	25.39
809.2	24.82
809.4	24.38
809.6	24.41
809.8	25.31
810.0	25.51
810.2	25.31
810.4	24.24
810.6	23.56
810.8	23.61
811.0	23.92
811.2	23.81
811.4	24.01
811.6	23.37
811.8	22.55
812.0	22.21
812.2	22.14
812.4	22.31
812.6	22.77
812.8	22.67
813.0	22.04
813.2	21.99
813.4	21.31
813.6	21.21
813.8	21.72
814.0	21.93
814.2	21.61
814.4	21.31
814.6	20.75
814.8	20.51
815.0	20.70
815.2	20.22
815.4	20.08
815.6	20.26
815.8	20.00
816.0	19.85
816.2	19.73
816.4	19.07
816.6	18.62
816.8	18.68
817.0	18.41
817.2	18.72
817.4	19.64
817.6	20.24
817.8	19.90
818.0	19.79
818.2	19.74
818.4	18.99
818.6	18.43
818.8	18.16
819.0	17.55
819.2	17.46
819.4	18.32
819.6	18.62
819.8	18.54
820.0	18.72
820.2	18.28
820.4	18.01
820.6	17.87
820.8	17.70
821.0	17.25
821.2	16.93
821.4	16.58
821.6	17.03
821.8	16.87
822.0	16.54
822.2	15.84
822.4	16.03
822.6	16.14
822.8	16.87
823.0	16.78
823.2	16.80
823.4	16.75
823.6	16.91
823.8	16.33
824.0	15.67
824.2	13.96
824.4	13.58
824.6	13.69
824.8	13.50
825.0	14.27
825.2	15.00
825.4	15.31
825.6	16.20
825.8	15.52
826.0	14.19
826.2	13.84
826.4	13.44
826.6	13.84
826.8	14.40
827.0	13.99
827.2	13.22
827.4	12.88
827.6	12.47
827.8	12.60
828.0	12.94
828.2	13.16
828.4	13.21
828.6	13.27
828.8	13.02
829.0	12.83
829.2	13.05
829.4	12.59
829.6	12.51
829.8	12.85
830.0	12.58
830.2	12.36
830.4	12.37
830.6	11.93
830.8	11.66
831.0	11.67
831.2	10.90
831.4	10.59
831.6	10.84
831.8	11.38
832.0	11.20
832.2	11.17
832.4	10.63
832.6	10.41
832.8	10.66
833.0	11.16
833.2	10.70
833.4	11.28
833.6	10.80
833.8	10.52
834.0	10.14
834.2	10.07
834.4	10.45
834.6	10.78
834.8	10.49
835.0	10.29
835.2	9.597
835.4	9.597
835.6	9.705
835.8	9.298
836.0	8.965
836.2	8.612
836.4	8.541
836.6	8.909
836.8	9.309
837.0	9.721
837.2	9.679
837.4	9.342
837.6	8.949
837.8	8.704
838.0	8.707
838.2	8.770
838.4	9.560
838.6	9.521
838.8	9.568
839.0	9.326
839.2	8.642
839.4	8.138
839.6	8.289
839.8	7.878
840.0	7.990
840.2	8.338
840.4	8.255
840.6	8.250
840.8	8.091
841.0	8.034
841.2	7.796
841.4	7.898
841.6	7.506
841.8	7.472
842.0	7.462
842.2	7.845
842.4	8.024
842.6	8.105
842.8	7.354
843.0	7.006
843.2	7.032
843.4	6.674
843.6	6.810
843.8	7.049
844.0	6.808
844.2	6.870
844.4	6.922
844.6	6.615
844.8	6.626
845.0	6.462
845.2	6.677
845.4	6.344
845.6	6.324
845.8	6.416
846.0	6.517
846.2	6.714
846.4	6.988
846.6	7.038
846.8	7.616
847.0	7.565
847.2	7.431
847.4	6.747
847.6	6.259
847.8	5.973
848.0	6.555
848.2	6.450
848.4	6.235
848.6	5.705
848.8	5.851
849.0	6.026
849.2	6.828
849.4	7.200
849.6	7.050
849.8	6.489
850.0	6.111
850.2	5.825
850.4	5.686
850.6	6.285
850.8	6.545
851.0	6.290
851.2	6.299
851.4	6.089
851.6	5.687
851.8	5.522
852.0	5.641
852.2	5.690
852.4	5.655
852.6	5.699
852.8	5.736
853.0	5.439
853.2	5.626
853.4	5.699
853.6	5.567
853.8	5.277
854.0	5.322
854.2	5.178
854.4	5.042
854.6	4.936
854.8	4.951
855.0	4.804
855.2	5.142
855.4	5.430
855.6	5.604
855.8	5.781
856.0	5.695
856.2	5.865
856.4	5.615
856.6	5.286
856.8	4.930
857.0	4.826
857.2	4.700
857.4	4.992
857.6	5.229
857.8	5.317
858.0	5.282
858.2	5.546
858.4	5.688
858.6	5.845
858.8	5.709
859.0	5.352
859.2	4.568
859.4	4.653
859.6	4.940
859.8	5.324
860.0	5.351
860.2	5.496
860.4	5.059
860.6	5.113
860.8	4.822
861.0	4.671
861.2	4.980
861.4	5.375
861.6	5.746
861.8	5.877
862.0	5.502
862.2	5.094
862.4	4.762
862.6	4.713
862.8	4.983
863.0	5.147
863.2	5.336
863.4	5.483
863.6	5.435
863.8	5.437
864.0	5.572
864.2	5.255
864.4	4.900
864.6	4.525
864.8	4.654
865.0	5.008
865.2	5.217
865.4	5.310
865.6	5.581
865.8	5.484
866.0	5.709
866.2	5.967
866.4	5.608
866.6	5.192
866.8	5.198
867.0	4.826
867.2	4.966
867.4	5.301
867.6	5.276
867.8	5.488
868.0	5.719
868.2	5.472
868.4	5.836
868.6	5.985
868.8	5.516
869.0	5.557
869.2	5.391
869.4	4.798
869.6	4.586
869.8	4.695
870.0	4.754
870.2	5.073
870.4	5.970
870.6	6.035
870.8	5.907
871.0	5.582
871.2	5.263
871.4	5.044
871.6	5.616
871.8	5.611
872.0	5.447
872.2	5.714
872.4	5.852
872.6	5.880
872.8	6.103
873.0	5.873
873.2	5.372
873.4	5.679
873.6	5.527
873.8	5.393
874.0	5.829
874.2	5.815
874.4	5.211
874.6	4.939
874.8	4.648
875.0	4.459
875.2	4.916
875.4	4.923
875.6	4.899
875.8	5.418
876.0	5.740
876.2	5.427
876.4	5.269
876.6	4.737
876.8	4.513
877.0	4.758
877.2	5.127
877.4	5.208
877.6	5.306
877.8	5.194
878.0	4.914
878.2	4.933
878.4	5.098
878.6	5.099
878.8	4.973
879.0	5.013
879.2	4.996
879.4	5.268
879.6	5.567
879.8	5.598
880.0	5.446
880.2	5.115
880.4	4.851
880.6	4.650
880.8	4.601
881.0	4.957
881.2	5.265
881.4	5.093
881.6	5.128
881.8	5.241
882.0	5.135
882.2	5.051
882.4	4.989
882.6	4.850
882.8	4.966
883.0	5.620
883.2	5.695
883.4	5.325
883.6	5.072
883.8	4.999
884.0	4.915
884.2	5.105
884.4	5.037
884.6	4.989
884.8	4.910
885.0	4.644
885.2	4.546
885.4	4.802
885.6	4.982
885.8	5.378
886.0	5.398
886.2	4.975
886.4	4.770
886.6	4.717
886.8	4.314
887.0	5.074
887.2	5.467
887.4	5.735
887.6	5.881
887.8	5.580
888.0	5.372
888.2	5.673
888.4	5.681
888.6	5.803
888.8	5.476
889.0	5.507
889.2	5.765
889.4	5.819
889.6	5.805
889.8	5.798
890.0	5.090
890.2	5.117
890.4	5.099
890.6	5.509
890.8	5.308
891.0	5.169
891.2	4.569
891.4	4.650
891.6	4.712
891.8	5.251
892.0	5.050
892.2	5.227
892.4	5.153
892.6	5.394
892.8	5.409
893.0	5.621
893.2	5.511
893.4	5.660
893.6	5.245
893.8	5.207
894.0	5.088
894.2	5.079
894.4	4.927
894.6	4.870
894.8	4.632
895.0	4.918
895.2	5.021
895.4	5.111
895.6	5.264
895.8	5.223
896.0	5.260
896.2	5.252
896.4	4.957
896.6	4.905
896.8	5.144
897.0	5.231
897.2	5.264
897.4	5.541
897.6	5.565
897.8	5.452
898.0	5.390
898.2	5.106
898.4	4.800
898.6	4.870
898.8	4.836
899.0	4.659
899.2	4.736
899.4	4.573
899.6	4.559
899.8	4.651
900.0	4.886

