Sample:	'20211010A(EM)
File name:	R-Ni-CDS-CHO-yuan-S2- new.FDS
Run date:	'09:12:38, 03/23/2023
Operator:	Administrator
Comment:	'

Instrument
Model:	F-4700 FL Spectrophotometer
Serial number:	2019-001
ROM Version:	5J24010 00

Instrument parameters
Measurement type:	Wavelength scan
Scan mode:	Emission
Data mode:	Fluorescence
EX WL:	530.0 nm
EM  Start WL:	550.0 nm
EM  End WL:	900.0 nm
Scan speed:	1200 nm/min
Delay:	0.0 s
EX Slit:	10.0 nm
EM Slit:	10.0 nm
PMT Voltage:	660 V
Response:	0.002 s
Corrected spectra:	Off
Shutter control:	On

Processing performed
Savitsky-Golay smoothed
Smoothing order:	3
Number of points:	7
Number of times:	1

Peak integration
Integration method:	Rectangular
Sensitivity:	1
Threshold:	1.000

Peaks
No.	Start(nm)	Apex(nm)	End(nm)	Height(Data)	Valley(nm)	Valley(Data)
1	550.0	550.2	552.0	256.9	552.0	249.2
2	552.0	552.8	554.2	257.2	554.2	253.3
3	554.2	554.6	555.8	257.6	555.8	252.9
4	555.8	557.4	557.6	260.8	557.6	255.2
5	557.6	558.6	559.6	268.5	559.6	258.2
6	559.6	617.4	617.2	793.7	617.2	789.4
7	617.2	618.6	619.6	808.0	619.6	797.4
8	619.6	620.2	621.8	808.4	621.8	797.3
9	621.8	622.6	625.2	816.5	625.2	791.5
10	625.2	626.6	628.6	804.7	628.6	784.1
11	628.6	629.8	631.8	793.0	631.8	765.0
12	631.8	633.0	637.2	782.3	637.2	732.0
13	637.2	638.6	642.4	744.2	642.4	692.9
14	642.4	642.8	697.8	704.0	697.8	194.0
15	697.8	698.6	706.2	201.3	706.2	160.4
16	706.2	707.2	708.6	165.5	708.6	152.4
17	708.6	709.4	742.2	158.2	742.2	54.27
18	742.2	743.0	746.2	57.79	746.2	46.50
19	746.2	747.0	760.0	48.64	760.0	30.90
20	760.0	761.0	765.2	33.39	765.2	26.68
21	765.2	766.8	768.8	28.61	768.8	25.20
22	768.8	769.2	770.6	26.60	770.6	22.13
23	770.6	771.2	773.4	24.52	773.4	20.93
24	773.4	774.2	775.4	22.41	775.4	20.00
25	775.4	777.0	778.6	21.67	778.6	18.91
26	778.6	779.4	781.6	19.91	781.6	17.66
27	781.6	782.6	786.4	19.29	786.4	16.07
28	786.4	787.0	789.8	17.41	789.8	13.72
29	789.8	790.8	792.8	15.84	792.8	14.06
30	792.8	793.4	794.4	15.69	794.4	13.16
31	794.4	796.6	798.8	14.87	798.8	12.59
32	798.8	800.8	801.8	14.32	801.8	12.04
33	801.8	804.0	805.2	14.44	805.2	11.18
34	805.2	806.2	807.0	13.12	807.0	11.01
35	807.0	809.0	810.0	12.74	810.0	10.88
36	810.0	811.8	816.0	13.21	816.0	10.14
37	816.0	817.6	819.2	11.50	819.2	9.622
38	819.2	820.8	824.4	11.21	824.4	8.909
39	824.4	825.2	830.4	10.32	830.4	7.554
40	830.4	831.2	832.6	8.880	832.6	6.712
41	832.6	834.6	842.2	7.790	842.2	5.927
42	842.2	843.4	845.0	7.126	845.0	5.606
43	845.0	845.8	847.0	6.923	847.0	5.174
44	847.0	849.2	851.6	6.699	851.6	5.040
45	851.6	854.8	857.2	6.224	857.2	5.081
46	857.2	857.8	858.4	6.544	858.4	4.678
47	858.4	859.4	861.0	6.323	861.0	5.171
48	861.0	862.8	863.8	6.786	863.8	5.715
49	863.8	868.4	870.6	7.359	870.6	5.908
50	870.6	875.2	878.0	7.166	878.0	5.926
51	878.0	879.4	880.8	7.662	880.8	5.127
52	880.8	881.6	883.4	7.060	883.4	5.998
53	883.4	884.4	885.0	7.005	885.0	5.965
54	885.0	887.4	890.0	7.128	890.0	5.559
55	890.0	891.6	892.8	6.897	892.8	4.993
56	892.8	894.6	895.6	7.372	895.6	5.690
57	895.6	896.6	900.0	7.251	900.0	5.825

Data points
nm	Data
550.0	254.0
550.2	256.9
550.4	256.6
550.6	254.2
550.8	250.1
551.0	249.4
551.2	251.4
551.4	250.6
551.6	250.9
551.8	250.7
552.0	249.2
552.2	250.5
552.4	254.0
552.6	255.2
552.8	257.2
553.0	256.1
553.2	256.0
553.4	255.4
553.6	254.2
553.8	253.3
554.0	254.3
554.2	253.3
554.4	256.3
554.6	257.6
554.8	256.9
555.0	256.5
555.2	256.0
555.4	253.8
555.6	254.0
555.8	252.9
556.0	253.5
556.2	253.9
556.4	254.5
556.6	256.3
556.8	259.1
557.0	258.9
557.2	259.9
557.4	260.8
557.6	255.2
557.8	255.5
558.0	258.0
558.2	258.8
558.4	261.6
558.6	268.5
558.8	266.3
559.0	265.0
559.2	262.6
559.4	260.8
559.6	258.2
559.8	261.5
560.0	263.4
560.2	267.7
560.4	267.5
560.6	268.7
560.8	267.5
561.0	267.2
561.2	269.4
561.4	274.0
561.6	273.4
561.8	271.0
562.0	271.2
562.2	271.9
562.4	275.5
562.6	277.5
562.8	278.0
563.0	274.4
563.2	273.3
563.4	274.6
563.6	276.1
563.8	277.8
564.0	277.4
564.2	277.0
564.4	276.8
564.6	280.3
564.8	281.9
565.0	286.2
565.2	288.8
565.4	290.7
565.6	289.3
565.8	286.8
566.0	282.9
566.2	284.1
566.4	287.1
566.6	290.8
566.8	292.8
567.0	293.5
567.2	293.1
567.4	294.0
567.6	295.7
567.8	295.7
568.0	295.2
568.2	298.4
568.4	301.1
568.6	305.6
568.8	307.7
569.0	310.2
569.2	309.7
569.4	310.0
569.6	311.8
569.8	314.0
570.0	314.1
570.2	319.5
570.4	319.4
570.6	318.5
570.8	318.1
571.0	318.9
571.2	319.6
571.4	319.3
571.6	322.0
571.8	323.5
572.0	323.4
572.2	327.9
572.4	328.9
572.6	328.1
572.8	333.2
573.0	339.8
573.2	344.0
573.4	349.5
573.6	350.0
573.8	347.3
574.0	347.2
574.2	351.8
574.4	354.1
574.6	356.5
574.8	355.2
575.0	353.3
575.2	354.0
575.4	359.2
575.6	359.9
575.8	360.6
576.0	359.4
576.2	360.9
576.4	364.9
576.6	373.2
576.8	375.8
577.0	379.9
577.2	381.3
577.4	384.4
577.6	387.2
577.8	387.9
578.0	390.2
578.2	388.3
578.4	387.4
578.6	389.1
578.8	391.8
579.0	395.7
579.2	403.1
579.4	403.7
579.6	409.8
579.8	408.4
580.0	411.0
580.2	411.9
580.4	414.7
580.6	417.2
580.8	420.8
581.0	421.6
581.2	426.4
581.4	429.4
581.6	433.2
581.8	436.4
582.0	438.3
582.2	441.6
582.4	442.1
582.6	442.8
582.8	447.3
583.0	446.7
583.2	447.7
583.4	448.3
583.6	447.5
583.8	449.7
584.0	458.6
584.2	458.4
584.4	462.8
584.6	462.8
584.8	463.4
585.0	469.7
585.2	477.9
585.4	484.1
585.6	486.8
585.8	486.5
586.0	487.2
586.2	493.2
586.4	492.6
586.6	498.1
586.8	497.1
587.0	499.7
587.2	501.7
587.4	507.1
587.6	505.1
587.8	510.1
588.0	514.7
588.2	516.4
588.4	518.8
588.6	522.7
588.8	519.0
589.0	522.3
589.2	531.4
589.4	536.2
589.6	538.3
589.8	541.5
590.0	538.0
590.2	539.1
590.4	543.4
590.6	546.6
590.8	545.9
591.0	553.7
591.2	557.6
591.4	557.1
591.6	555.0
591.8	553.6
592.0	554.6
592.2	562.0
592.4	568.1
592.6	570.0
592.8	571.0
593.0	575.2
593.2	578.3
593.4	587.1
593.6	588.8
593.8	590.7
594.0	590.8
594.2	592.0
594.4	592.9
594.6	596.3
594.8	596.8
595.0	601.2
595.2	607.1
595.4	608.6
595.6	616.8
595.8	611.9
596.0	613.2
596.2	611.4
596.4	616.2
596.6	617.4
596.8	624.5
597.0	626.1
597.2	632.1
597.4	634.9
597.6	642.5
597.8	646.6
598.0	646.7
598.2	651.3
598.4	651.4
598.6	653.6
598.8	655.4
599.0	655.0
599.2	657.4
599.4	658.5
599.6	658.8
599.8	664.4
600.0	665.6
600.2	663.1
600.4	664.7
600.6	666.4
600.8	671.4
601.0	677.2
601.2	681.8
601.4	680.3
601.6	676.5
601.8	682.0
602.0	685.9
602.2	691.0
602.4	699.0
602.6	702.6
602.8	700.1
603.0	700.1
603.2	698.0
603.4	696.1
603.6	701.4
603.8	704.3
604.0	702.7
604.2	706.4
604.4	710.8
604.6	710.2
604.8	716.0
605.0	718.1
605.2	718.3
605.4	720.3
605.6	722.1
605.8	721.3
606.0	721.8
606.2	723.2
606.4	724.7
606.6	727.3
606.8	731.2
607.0	733.5
607.2	736.6
607.4	738.6
607.6	737.8
607.8	735.7
608.0	734.9
608.2	741.7
608.4	748.5
608.6	752.0
608.8	752.4
609.0	746.6
609.2	745.9
609.4	754.4
609.6	757.9
609.8	757.4
610.0	751.8
610.2	747.4
610.4	750.2
610.6	757.3
610.8	764.4
611.0	766.2
611.2	765.5
611.4	765.5
611.6	764.4
611.8	765.4
612.0	770.7
612.2	773.6
612.4	776.5
612.6	777.6
612.8	773.9
613.0	776.7
613.2	779.9
613.4	779.3
613.6	781.5
613.8	782.3
614.0	781.6
614.2	784.4
614.4	785.9
614.6	782.8
614.8	780.5
615.0	782.5
615.2	783.4
615.4	784.6
615.6	789.5
615.8	792.0
616.0	788.8
616.2	793.4
616.4	792.0
616.6	793.6
616.8	792.5
617.0	790.8
617.2	789.4
617.4	793.7
617.6	790.2
617.8	793.4
618.0	792.4
618.2	794.5
618.4	798.3
618.6	808.0
618.8	804.6
619.0	804.4
619.2	800.6
619.4	799.2
619.6	797.4
619.8	802.0
620.0	804.0
620.2	808.4
620.4	805.9
620.6	802.8
620.8	804.0
621.0	801.7
621.2	799.0
621.4	802.7
621.6	800.5
621.8	797.3
622.0	801.2
622.2	805.7
622.4	810.1
622.6	816.5
622.8	815.1
623.0	807.0
623.2	804.9
623.4	803.6
623.6	802.2
623.8	798.5
624.0	798.3
624.2	794.7
624.4	800.1
624.6	799.7
624.8	796.6
625.0	795.0
625.2	791.5
625.4	793.7
625.6	795.2
625.8	798.6
626.0	800.8
626.2	800.4
626.4	800.2
626.6	804.7
626.8	800.4
627.0	800.4
627.2	801.3
627.4	792.4
627.6	793.6
627.8	791.3
628.0	789.2
628.2	788.5
628.4	789.9
628.6	784.1
628.8	784.9
629.0	788.0
629.2	790.3
629.4	792.0
629.6	792.5
629.8	793.0
630.0	788.6
630.2	790.7
630.4	788.6
630.6	783.1
630.8	779.6
631.0	777.0
631.2	770.4
631.4	767.4
631.6	765.7
631.8	765.0
632.0	767.0
632.2	767.3
632.4	771.8
632.6	774.2
632.8	779.2
633.0	782.3
633.2	778.0
633.4	768.0
633.6	764.7
633.8	766.2
634.0	765.0
634.2	764.5
634.4	765.0
634.6	763.7
634.8	767.2
635.0	772.1
635.2	763.6
635.4	754.5
635.6	750.9
635.8	746.9
636.0	752.5
636.2	755.9
636.4	753.6
636.6	745.9
636.8	740.3
637.0	732.0
637.2	732.0
637.4	734.5
637.6	735.0
637.8	734.7
638.0	732.6
638.2	736.1
638.4	739.8
638.6	744.2
638.8	743.0
639.0	738.5
639.2	728.3
639.4	725.2
639.6	719.1
639.8	718.6
640.0	715.8
640.2	713.3
640.4	712.7
640.6	714.3
640.8	713.9
641.0	713.0
641.2	710.2
641.4	708.1
641.6	706.4
641.8	701.6
642.0	698.7
642.2	693.6
642.4	692.9
642.6	698.5
642.8	704.0
643.0	702.8
643.2	702.2
643.4	695.4
643.6	690.6
643.8	686.1
644.0	679.1
644.2	672.9
644.4	670.6
644.6	666.6
644.8	670.2
645.0	668.2
645.2	669.3
645.4	671.4
645.6	674.1
645.8	670.2
646.0	667.5
646.2	661.2
646.4	660.2
646.6	659.7
646.8	661.3
647.0	661.5
647.2	659.7
647.4	656.5
647.6	654.2
647.8	648.5
648.0	646.9
648.2	645.2
648.4	644.0
648.6	639.3
648.8	637.6
649.0	637.7
649.2	637.5
649.4	636.9
649.6	635.5
649.8	626.7
650.0	623.6
650.2	622.4
650.4	615.2
650.6	615.6
650.8	613.7
651.0	612.6
651.2	612.3
651.4	606.1
651.6	600.8
651.8	602.7
652.0	602.1
652.2	600.4
652.4	595.9
652.6	589.3
652.8	587.3
653.0	589.2
653.2	590.5
653.4	583.4
653.6	576.2
653.8	578.4
654.0	576.1
654.2	576.4
654.4	580.5
654.6	575.4
654.8	567.3
655.0	568.4
655.2	564.0
655.4	562.3
655.6	565.3
655.8	565.4
656.0	561.4
656.2	557.4
656.4	554.7
656.6	553.3
656.8	551.7
657.0	551.7
657.2	550.0
657.4	542.9
657.6	537.1
657.8	534.3
658.0	528.0
658.2	530.3
658.4	532.2
658.6	532.9
658.8	533.2
659.0	530.3
659.2	518.4
659.4	512.8
659.6	509.1
659.8	507.6
660.0	507.6
660.2	508.8
660.4	507.8
660.6	508.3
660.8	505.3
661.0	498.2
661.2	493.2
661.4	490.7
661.6	490.6
661.8	494.7
662.0	495.6
662.2	493.6
662.4	489.6
662.6	484.1
662.8	479.5
663.0	480.0
663.2	479.4
663.4	478.6
663.6	476.4
663.8	475.7
664.0	470.1
664.2	469.6
664.4	461.5
664.6	460.1
664.8	459.0
665.0	457.5
665.2	454.0
665.4	453.8
665.6	450.3
665.8	452.1
666.0	448.6
666.2	442.2
666.4	437.5
666.6	437.5
666.8	437.4
667.0	439.9
667.2	441.8
667.4	441.3
667.6	440.0
667.8	438.7
668.0	434.8
668.2	431.8
668.4	429.6
668.6	425.8
668.8	417.9
669.0	410.9
669.2	410.6
669.4	410.9
669.6	412.5
669.8	411.6
670.0	406.8
670.2	400.7
670.4	398.9
670.6	399.0
670.8	399.0
671.0	400.3
671.2	400.5
671.4	399.1
671.6	398.5
671.8	393.7
672.0	387.6
672.2	384.4
672.4	382.6
672.6	385.0
672.8	388.9
673.0	389.0
673.2	388.0
673.4	385.0
673.6	381.3
673.8	375.5
674.0	370.0
674.2	367.8
674.4	365.0
674.6	363.2
674.8	363.0
675.0	360.2
675.2	359.9
675.4	358.3
675.6	358.1
675.8	356.6
676.0	356.4
676.2	353.8
676.4	353.8
676.6	350.0
676.8	352.1
677.0	348.6
677.2	346.6
677.4	345.7
677.6	342.9
677.8	340.4
678.0	337.3
678.2	332.2
678.4	329.7
678.6	330.7
678.8	330.5
679.0	329.0
679.2	326.9
679.4	326.6
679.6	328.3
679.8	326.9
680.0	325.5
680.2	320.7
680.4	320.1
680.6	315.6
680.8	315.4
681.0	312.1
681.2	310.6
681.4	308.9
681.6	311.1
681.8	308.0
682.0	304.9
682.2	302.2
682.4	302.3
682.6	298.7
682.8	301.2
683.0	297.6
683.2	291.5
683.4	290.7
683.6	294.3
683.8	293.2
684.0	294.0
684.2	292.0
684.4	286.6
684.6	283.8
684.8	284.0
685.0	282.1
685.2	281.7
685.4	282.3
685.6	279.8
685.8	275.7
686.0	270.6
686.2	270.9
686.4	273.6
686.6	272.7
686.8	272.9
687.0	269.4
687.2	263.7
687.4	266.7
687.6	267.6
687.8	266.0
688.0	264.0
688.2	260.9
688.4	256.2
688.6	258.1
688.8	259.0
689.0	257.5
689.2	253.0
689.4	248.9
689.6	242.8
689.8	242.0
690.0	243.0
690.2	245.3
690.4	246.7
690.6	245.3
690.8	244.4
691.0	240.8
691.2	238.0
691.4	238.7
691.6	237.3
691.8	234.2
692.0	234.0
692.2	234.8
692.4	235.7
692.6	234.1
692.8	231.0
693.0	225.5
693.2	221.0
693.4	221.1
693.6	221.8
693.8	221.3
694.0	221.1
694.2	221.9
694.4	221.7
694.6	219.8
694.8	218.5
695.0	215.3
695.2	210.5
695.4	210.4
695.6	208.9
695.8	208.7
696.0	209.4
696.2	207.7
696.4	207.0
696.6	205.2
696.8	205.3
697.0	205.5
697.2	205.1
697.4	201.6
697.6	197.6
697.8	194.0
698.0	195.6
698.2	196.4
698.4	198.7
698.6	201.3
698.8	200.2
699.0	200.1
699.2	198.5
699.4	196.3
699.6	194.1
699.8	192.8
700.0	192.3
700.2	191.5
700.4	191.1
700.6	190.8
700.8	191.1
701.0	189.5
701.2	186.8
701.4	180.7
701.6	179.3
701.8	179.5
702.0	184.6
702.2	185.2
702.4	182.5
702.6	178.2
702.8	177.9
703.0	175.8
703.2	177.0
703.4	176.3
703.6	174.9
703.8	172.5
704.0	170.6
704.2	170.3
704.4	168.9
704.6	169.2
704.8	172.3
705.0	171.1
705.2	169.6
705.4	170.8
705.6	166.4
705.8	163.7
706.0	163.9
706.2	160.4
706.4	161.5
706.6	161.1
706.8	160.6
707.0	164.0
707.2	165.5
707.4	162.9
707.6	163.5
707.8	160.0
708.0	155.0
708.2	156.1
708.4	153.4
708.6	152.4
708.8	154.2
709.0	156.9
709.2	155.9
709.4	158.2
709.6	156.4
709.8	155.4
710.0	154.1
710.2	150.8
710.4	145.4
710.6	141.2
710.8	141.0
711.0	140.5
711.2	141.3
711.4	142.4
711.6	142.2
711.8	140.4
712.0	141.8
712.2	141.0
712.4	139.5
712.6	140.0
712.8	137.7
713.0	134.1
713.2	134.8
713.4	133.9
713.6	132.6
713.8	131.9
714.0	130.9
714.2	130.8
714.4	133.6
714.6	133.9
714.8	133.0
715.0	130.8
715.2	127.2
715.4	126.0
715.6	124.3
715.8	125.4
716.0	126.6
716.2	126.1
716.4	124.6
716.6	121.4
716.8	119.0
717.0	120.4
717.2	120.9
717.4	121.0
717.6	120.6
717.8	118.8
718.0	118.4
718.2	118.1
718.4	118.7
718.6	117.9
718.8	115.8
719.0	115.0
719.2	111.9
719.4	111.8
719.6	112.7
719.8	112.3
720.0	113.2
720.2	113.7
720.4	112.6
720.6	113.7
720.8	112.5
721.0	110.7
721.2	109.5
721.4	107.4
721.6	107.3
721.8	106.8
722.0	105.1
722.2	105.3
722.4	105.2
722.6	104.3
722.8	105.0
723.0	103.6
723.2	102.0
723.4	101.8
723.6	101.3
723.8	101.7
724.0	101.2
724.2	99.16
724.4	97.84
724.6	96.99
724.8	96.54
725.0	98.38
725.2	98.65
725.4	97.25
725.6	94.57
725.8	94.66
726.0	94.10
726.2	94.22
726.4	93.23
726.6	91.25
726.8	89.41
727.0	90.42
727.2	91.36
727.4	91.77
727.6	91.05
727.8	89.91
728.0	88.29
728.2	87.20
728.4	86.81
728.6	85.14
728.8	84.86
729.0	85.01
729.2	84.06
729.4	84.11
729.6	83.99
729.8	83.38
730.0	83.32
730.2	83.54
730.4	81.44
730.6	81.52
730.8	79.72
731.0	79.46
731.2	79.96
731.4	80.85
731.6	80.49
731.8	80.44
732.0	76.88
732.2	76.11
732.4	75.91
732.6	75.44
732.8	75.81
733.0	75.26
733.2	74.18
733.4	74.19
733.6	73.74
733.8	74.54
734.0	75.16
734.2	75.57
734.4	75.44
734.6	73.62
734.8	72.89
735.0	72.58
735.2	70.56
735.4	70.07
735.6	68.96
735.8	69.73
736.0	70.33
736.2	70.11
736.4	68.37
736.6	68.27
736.8	65.79
737.0	64.90
737.2	63.47
737.4	64.60
737.6	64.40
737.8	65.83
738.0	65.09
738.2	64.73
738.4	63.28
738.6	63.89
738.8	63.40
739.0	62.93
739.2	61.38
739.4	61.19
739.6	59.13
739.8	58.77
740.0	60.36
740.2	60.50
740.4	59.70
740.6	59.81
740.8	59.88
741.0	59.10
741.2	59.23
741.4	58.01
741.6	56.20
741.8	55.88
742.0	55.54
742.2	54.27
742.4	54.74
742.6	55.31
742.8	56.43
743.0	57.79
743.2	57.35
743.4	56.45
743.6	56.03
743.8	54.52
744.0	53.61
744.2	51.85
744.4	51.49
744.6	52.11
744.8	52.35
745.0	51.64
745.2	50.66
745.4	49.28
745.6	49.10
745.8	48.31
746.0	46.75
746.2	46.50
746.4	46.75
746.6	47.56
746.8	48.12
747.0	48.64
747.2	47.73
747.4	47.57
747.6	47.64
747.8	47.41
748.0	46.64
748.2	46.81
748.4	46.02
748.6	45.47
748.8	45.06
749.0	45.16
749.2	45.64
749.4	45.10
749.6	44.64
749.8	44.12
750.0	43.15
750.2	43.97
750.4	45.14
750.6	45.22
750.8	45.08
751.0	44.09
751.2	42.49
751.4	42.70
751.6	41.59
751.8	41.71
752.0	41.19
752.2	40.98
752.4	40.51
752.6	41.00
752.8	39.74
753.0	40.75
753.2	40.05
753.4	40.06
753.6	39.20
753.8	39.87
754.0	39.74
754.2	40.39
754.4	39.96
754.6	38.18
754.8	36.68
755.0	36.96
755.2	37.24
755.4	37.34
755.6	37.93
755.8	36.78
756.0	35.92
756.2	36.69
756.4	37.18
756.6	36.97
756.8	36.18
757.0	35.71
757.2	34.89
757.4	35.77
757.6	35.91
757.8	36.24
758.0	35.19
758.2	35.44
758.4	34.98
758.6	34.26
758.8	34.10
759.0	34.33
759.2	33.28
759.4	32.87
759.6	31.66
759.8	31.31
760.0	30.90
760.2	31.07
760.4	31.62
760.6	32.42
760.8	32.44
761.0	33.39
761.2	32.49
761.4	32.16
761.6	32.57
761.8	32.47
762.0	32.15
762.2	31.67
762.4	31.70
762.6	31.55
762.8	31.55
763.0	30.78
763.2	30.29
763.4	29.00
763.6	29.07
763.8	29.37
764.0	29.22
764.2	28.49
764.4	28.72
764.6	28.34
764.8	27.94
765.0	27.22
765.2	26.68
765.4	26.97
765.6	28.03
765.8	28.36
766.0	28.35
766.2	27.68
766.4	27.79
766.6	28.42
766.8	28.61
767.0	28.02
767.2	27.13
767.4	26.65
767.6	26.13
767.8	25.95
768.0	25.84
768.2	25.55
768.4	25.34
768.6	25.28
768.8	25.20
769.0	25.96
769.2	26.60
769.4	25.82
769.6	25.63
769.8	24.31
770.0	23.45
770.2	23.29
770.4	22.84
770.6	22.13
770.8	22.85
771.0	24.31
771.2	24.52
771.4	24.46
771.6	23.58
771.8	22.82
772.0	21.66
772.2	22.16
772.4	22.12
772.6	22.51
772.8	22.51
773.0	22.75
773.2	21.39
773.4	20.93
773.6	21.18
773.8	21.14
774.0	21.60
774.2	22.41
774.4	22.00
774.6	21.89
774.8	21.20
775.0	20.21
775.2	20.19
775.4	20.00
775.6	20.21
775.8	20.62
776.0	20.81
776.2	20.57
776.4	20.48
776.6	20.77
776.8	21.38
777.0	21.67
777.2	21.08
777.4	20.49
777.6	19.62
777.8	19.67
778.0	19.79
778.2	19.83
778.4	18.93
778.6	18.91
778.8	18.92
779.0	19.40
779.2	19.75
779.4	19.91
779.6	19.55
779.8	19.19
780.0	18.28
780.2	18.47
780.4	17.98
780.6	18.49
780.8	18.53
781.0	18.55
781.2	18.00
781.4	18.41
781.6	17.66
781.8	18.22
782.0	17.91
782.2	18.75
782.4	18.82
782.6	19.29
782.8	18.55
783.0	18.02
783.2	17.28
783.4	18.01
783.6	17.81
783.8	18.09
784.0	17.53
784.2	16.70
784.4	16.49
784.6	16.87
784.8	16.88
785.0	16.75
785.2	16.97
785.4	16.99
785.6	17.24
785.8	17.09
786.0	16.63
786.2	16.19
786.4	16.07
786.6	16.72
786.8	17.13
787.0	17.41
787.2	17.13
787.4	16.41
787.6	15.60
787.8	15.48
788.0	15.52
788.2	15.70
788.4	15.52
788.6	15.60
788.8	15.96
789.0	15.93
789.2	15.48
789.4	14.54
789.6	13.97
789.8	13.72
790.0	14.62
790.2	14.88
790.4	15.31
790.6	15.78
790.8	15.84
791.0	14.91
791.2	14.96
791.4	14.19
791.6	14.36
791.8	14.81
792.0	15.63
792.2	15.22
792.4	14.91
792.6	14.38
792.8	14.06
793.0	14.28
793.2	15.52
793.4	15.69
793.6	15.25
793.8	14.96
794.0	14.00
794.2	13.33
794.4	13.16
794.6	13.17
794.8	13.96
795.0	14.19
795.2	14.16
795.4	14.27
795.6	14.23
795.8	13.63
796.0	14.46
796.2	14.43
796.4	14.29
796.6	14.87
796.8	14.75
797.0	13.92
797.2	14.38
797.4	14.15
797.6	13.45
797.8	13.86
798.0	13.69
798.2	13.17
798.4	13.53
798.6	13.08
798.8	12.59
799.0	12.73
799.2	13.18
799.4	13.53
799.6	13.70
799.8	13.34
800.0	13.05
800.2	12.86
800.4	13.37
800.6	14.17
800.8	14.32
801.0	13.70
801.2	13.12
801.4	12.60
801.6	12.09
801.8	12.04
802.0	12.36
802.2	12.20
802.4	12.23
802.6	12.05
802.8	12.56
803.0	12.18
803.2	12.56
803.4	12.79
803.6	13.11
803.8	13.16
804.0	14.44
804.2	13.61
804.4	13.49
804.6	12.41
804.8	11.67
805.0	11.30
805.2	11.18
805.4	11.35
805.6	12.09
805.8	12.16
806.0	12.90
806.2	13.12
806.4	12.44
806.6	12.26
806.8	11.46
807.0	11.01
807.2	11.29
807.4	12.23
807.6	12.77
807.8	13.03
808.0	12.44
808.2	11.79
808.4	11.75
808.6	12.36
808.8	12.40
809.0	12.74
809.2	12.55
809.4	11.81
809.6	11.64
809.8	11.28
810.0	10.88
810.2	11.19
810.4	11.50
810.6	11.53
810.8	11.31
811.0	11.51
811.2	11.17
811.4	11.75
811.6	12.50
811.8	13.21
812.0	12.83
812.2	12.39
812.4	11.48
812.6	11.47
812.8	11.64
813.0	11.65
813.2	12.02
813.4	11.81
813.6	11.35
813.8	11.07
814.0	11.09
814.2	10.72
814.4	11.53
814.6	11.49
814.8	10.75
815.0	10.82
815.2	10.79
815.4	10.55
815.6	10.40
815.8	10.65
816.0	10.14
816.2	10.43
816.4	10.53
816.6	10.43
816.8	10.35
817.0	10.54
817.2	10.62
817.4	10.68
817.6	11.50
817.8	11.20
818.0	10.83
818.2	10.17
818.4	10.12
818.6	9.855
818.8	10.07
819.0	9.909
819.2	9.622
819.4	9.755
819.6	10.19
819.8	10.44
820.0	10.20
820.2	10.42
820.4	10.10
820.6	10.63
820.8	11.21
821.0	10.71
821.2	9.686
821.4	9.329
821.6	9.401
821.8	9.818
822.0	10.27
822.2	9.690
822.4	9.427
822.6	9.146
822.8	9.721
823.0	9.705
823.2	9.822
823.4	9.828
823.6	10.10
823.8	9.978
824.0	9.856
824.2	9.174
824.4	8.909
824.6	9.253
824.8	9.462
825.0	10.08
825.2	10.32
825.4	9.870
825.6	9.352
825.8	9.420
826.0	8.955
826.2	9.074
826.4	9.507
826.6	9.327
826.8	9.562
827.0	9.704
827.2	9.417
827.4	9.232
827.6	9.315
827.8	9.133
828.0	9.402
828.2	9.071
828.4	8.826
828.6	8.630
828.8	8.982
829.0	8.796
829.2	8.632
829.4	8.480
829.6	8.661
829.8	8.420
830.0	8.585
830.2	7.913
830.4	7.554
830.6	7.885
830.8	8.624
831.0	8.660
831.2	8.880
831.4	8.368
831.6	8.128
831.8	7.752
832.0	7.289
832.2	7.127
832.4	6.930
832.6	6.712
832.8	7.223
833.0	7.557
833.2	7.531
833.4	7.478
833.6	7.212
833.8	6.797
834.0	6.973
834.2	7.384
834.4	7.697
834.6	7.790
834.8	7.474
835.0	7.087
835.2	6.978
835.4	7.198
835.6	7.606
835.8	7.789
836.0	7.118
836.2	6.953
836.4	7.137
836.6	7.096
836.8	7.057
837.0	6.957
837.2	6.927
837.4	7.227
837.6	7.094
837.8	6.665
838.0	6.352
838.2	6.348
838.4	6.711
838.6	6.695
838.8	6.466
839.0	6.591
839.2	6.565
839.4	6.831
839.6	6.849
839.8	6.387
840.0	6.653
840.2	6.738
840.4	7.172
840.6	7.123
840.8	7.173
841.0	6.476
841.2	6.469
841.4	5.938
841.6	6.119
841.8	5.953
842.0	6.043
842.2	5.927
842.4	6.190
842.6	6.229
842.8	6.459
843.0	6.941
843.2	7.121
843.4	7.126
843.6	6.420
843.8	5.896
844.0	5.623
844.2	6.358
844.4	6.710
844.6	6.482
844.8	5.614
845.0	5.606
845.2	5.661
845.4	6.446
845.6	6.878
845.8	6.923
846.0	6.851
846.2	6.908
846.4	6.511
846.6	6.085
846.8	5.686
847.0	5.174
847.2	5.179
847.4	5.273
847.6	5.696
847.8	5.878
848.0	5.947
848.2	5.469
848.4	5.643
848.6	6.221
848.8	6.530
849.0	6.678
849.2	6.699
849.4	6.127
849.6	5.793
849.8	5.777
850.0	5.151
850.2	5.350
850.4	5.294
850.6	5.463
850.8	5.583
851.0	5.623
851.2	5.198
851.4	5.279
851.6	5.040
851.8	5.535
852.0	5.795
852.2	6.026
852.4	5.922
852.6	6.153
852.8	5.905
853.0	6.220
853.2	5.879
853.4	5.797
853.6	5.626
853.8	5.805
854.0	5.345
854.2	5.922
854.4	6.083
854.6	6.118
854.8	6.224
855.0	5.865
855.2	5.217
855.4	5.371
855.6	5.611
855.8	5.761
856.0	5.677
856.2	5.938
856.4	6.000
856.6	5.901
856.8	5.593
857.0	5.546
857.2	5.081
857.4	5.987
857.6	6.495
857.8	6.544
858.0	5.863
858.2	5.603
858.4	4.678
858.6	5.130
858.8	5.600
859.0	6.079
859.2	6.039
859.4	6.323
859.6	6.029
859.8	6.313
860.0	6.319
860.2	6.268
860.4	5.724
860.6	5.642
860.8	5.581
861.0	5.171
861.2	5.378
861.4	6.040
861.6	6.287
861.8	6.303
862.0	6.167
862.2	5.651
862.4	5.787
862.6	6.356
862.8	6.786
863.0	6.764
863.2	6.540
863.4	6.147
863.6	5.847
863.8	5.715
864.0	6.092
864.2	6.415
864.4	6.672
864.6	6.594
864.8	6.710
865.0	6.685
865.2	6.544
865.4	6.222
865.6	6.021
865.8	5.874
866.0	5.978
866.2	6.573
866.4	6.458
866.6	6.067
866.8	5.855
867.0	5.752
867.2	5.994
867.4	6.388
867.6	6.225
867.8	6.576
868.0	6.879
868.2	6.759
868.4	7.359
868.6	6.936
868.8	6.462
869.0	6.661
869.2	6.484
869.4	6.001
869.6	6.358
869.8	6.012
870.0	6.089
870.2	6.222
870.4	6.017
870.6	5.908
870.8	6.090
871.0	6.270
871.2	6.566
871.4	6.643
871.6	6.281
871.8	6.893
872.0	6.881
872.2	6.720
872.4	6.879
872.6	6.861
872.8	6.340
873.0	6.658
873.2	6.545
873.4	6.149
873.6	6.376
873.8	6.603
874.0	6.419
874.2	6.443
874.4	6.468
874.6	6.287
874.8	6.489
875.0	6.781
875.2	7.166
875.4	7.127
875.6	7.000
875.8	6.373
876.0	6.019
876.2	5.955
876.4	6.118
876.6	6.180
876.8	6.584
877.0	6.614
877.2	6.645
877.4	6.473
877.6	6.015
877.8	6.016
878.0	5.926
878.2	6.099
878.4	6.148
878.6	6.229
878.8	6.361
879.0	7.208
879.2	7.523
879.4	7.662
879.6	7.046
879.8	6.770
880.0	6.294
880.2	6.102
880.4	5.734
880.6	5.531
880.8	5.127
881.0	5.551
881.2	6.356
881.4	6.776
881.6	7.060
881.8	7.021
882.0	6.732
882.2	6.624
882.4	6.951
882.6	6.738
882.8	6.248
883.0	6.015
883.2	6.081
883.4	5.998
883.6	6.622
883.8	6.554
884.0	6.515
884.2	6.906
884.4	7.005
884.6	6.497
884.8	6.398
885.0	5.965
885.2	5.992
885.4	6.585
885.6	6.952
885.8	6.676
886.0	6.552
886.2	6.596
886.4	6.142
886.6	6.165
886.8	6.435
887.0	6.219
887.2	6.587
887.4	7.128
887.6	7.002
887.8	6.839
888.0	6.916
888.2	6.362
888.4	6.383
888.6	6.243
888.8	6.251
889.0	6.162
889.2	6.603
889.4	6.615
889.6	6.323
889.8	5.733
890.0	5.559
890.2	5.653
890.4	6.424
890.6	6.725
890.8	6.751
891.0	6.890
891.2	6.822
891.4	6.658
891.6	6.897
891.8	6.425
892.0	6.411
892.2	6.389
892.4	5.624
892.6	4.997
892.8	4.993
893.0	5.091
893.2	5.803
893.4	6.537
893.6	6.297
893.8	6.030
894.0	6.011
894.2	6.083
894.4	6.589
894.6	7.372
894.8	7.191
895.0	6.531
895.2	6.451
895.4	5.990
895.6	5.690
895.8	5.842
896.0	5.799
896.2	6.404
896.4	6.816
896.6	7.251
896.8	6.959
897.0	6.779
897.2	6.567
897.4	6.869
897.6	6.469
897.8	6.471
898.0	6.358
898.2	6.586
898.4	6.559
898.6	6.405
898.8	6.005
899.0	5.731
899.2	5.860
899.4	6.161
899.6	6.387
899.8	6.339
900.0	5.825

