Sample:	'20211010A(EM)
File name:	R-CDs 10.FDS
Run date:	'15:31:55, 06/09/2023
Operator:	Administrator
Comment:	'

Instrument
Model:	F-4700 FL Spectrophotometer
Serial number:	2019-001
ROM Version:	5J24010 00

Instrument parameters
Measurement type:	Wavelength scan
Scan mode:	Emission
Data mode:	Fluorescence
EX WL:	520.0 nm
EM  Start WL:	540.0 nm
EM  End WL:	800.0 nm
Scan speed:	1200 nm/min
Delay:	0.0 s
EX Slit:	10.0 nm
EM Slit:	10.0 nm
PMT Voltage:	650 V
Response:	0.002 s
Corrected spectra:	Off
Shutter control:	On

Processing performed
Savitsky-Golay smoothed
Smoothing order:	3
Number of points:	7
Number of times:	1

Peak integration
Integration method:	Rectangular
Sensitivity:	1
Threshold:	1.000

Peaks
No.	Start(nm)	Apex(nm)	End(nm)	Height(Data)	Valley(nm)	Valley(Data)
1	540.0	602.0	603.2	8074	603.2	8038
2	603.2	605.2	606.0	8108	606.0	8026
3	606.0	607.6	746.8	8050	746.8	187.5
4	746.8	747.8	753.2	191.7	753.2	145.2
5	753.2	753.8	763.6	151.7	763.6	103.1
6	763.6	764.6	778.8	108.0	778.8	60.48
7	778.8	781.0	787.0	63.08	787.0	50.42
8	787.0	787.6	791.0	53.97	791.0	44.51
9	791.0	792.4	793.4	47.90	793.4	42.48
10	793.4	794.4	797.2	45.49	797.2	37.93
11	797.2	797.8	800.0	42.92	800.0	39.13

Data points
nm	Data
540.0	762.3
540.2	781.6
540.4	789.7
540.6	792.4
540.8	796.0
541.0	808.7
541.2	824.0
541.4	836.7
541.6	854.8
541.8	865.1
542.0	871.0
542.2	881.9
542.4	887.8
542.6	898.4
542.8	910.5
543.0	922.3
543.2	927.7
543.4	942.6
543.6	960.3
543.8	974.2
544.0	980.7
544.2	994.7
544.4	1001
544.6	1017
544.8	1028
545.0	1041
545.2	1052
545.4	1071
545.6	1086
545.8	1103
546.0	1111
546.2	1120
546.4	1129
546.6	1141
546.8	1156
547.0	1172
547.2	1189
547.4	1196
547.6	1211
547.8	1228
548.0	1242
548.2	1255
548.4	1269
548.6	1284
548.8	1300
549.0	1320
549.2	1328
549.4	1338
549.6	1351
549.8	1370
550.0	1381
550.2	1406
550.4	1411
550.6	1429
550.8	1442
551.0	1459
551.2	1480
551.4	1505
551.6	1519
551.8	1555
552.0	1576
552.2	1596
552.4	1630
552.6	1645
552.8	1654
553.0	1674
553.2	1687
553.4	1700
553.6	1722
553.8	1737
554.0	1745
554.2	1772
554.4	1797
554.6	1826
554.8	1847
555.0	1861
555.2	1876
555.4	1899
555.6	1915
555.8	1937
556.0	1961
556.2	1983
556.4	2006
556.6	2035
556.8	2046
557.0	2063
557.2	2086
557.4	2108
557.6	2129
557.8	2164
558.0	2184
558.2	2204
558.4	2222
558.6	2243
558.8	2273
559.0	2311
559.2	2335
559.4	2360
559.6	2374
559.8	2406
560.0	2444
560.2	2486
560.4	2513
560.6	2545
560.8	2553
561.0	2565
561.2	2592
561.4	2624
561.6	2660
561.8	2695
562.0	2727
562.2	2754
562.4	2792
562.6	2814
562.8	2842
563.0	2855
563.2	2881
563.4	2916
563.6	2940
563.8	2953
564.0	2990
564.2	3018
564.4	3073
564.6	3119
564.8	3140
565.0	3166
565.2	3197
565.4	3240
565.6	3283
565.8	3313
566.0	3337
566.2	3363
566.4	3394
566.6	3431
566.8	3456
567.0	3488
567.2	3502
567.4	3521
567.6	3568
567.8	3596
568.0	3643
568.2	3681
568.4	3724
568.6	3773
568.8	3824
569.0	3848
569.2	3882
569.4	3900
569.6	3947
569.8	3976
570.0	3996
570.2	4020
570.4	4057
570.6	4104
570.8	4158
571.0	4212
571.2	4242
571.4	4277
571.6	4311
571.8	4339
572.0	4363
572.2	4401
572.4	4419
572.6	4453
572.8	4503
573.0	4564
573.2	4612
573.4	4653
573.6	4671
573.8	4699
574.0	4729
574.2	4767
574.4	4806
574.6	4850
574.8	4887
575.0	4935
575.2	4981
575.4	5025
575.6	5072
575.8	5098
576.0	5125
576.2	5141
576.4	5173
576.6	5216
576.8	5254
577.0	5290
577.2	5340
577.4	5376
577.6	5419
577.8	5442
578.0	5467
578.2	5499
578.4	5534
578.6	5571
578.8	5615
579.0	5643
579.2	5680
579.4	5727
579.6	5765
579.8	5805
580.0	5826
580.2	5855
580.4	5868
580.6	5905
580.8	5951
581.0	6008
581.2	6036
581.4	6093
581.6	6110
581.8	6123
582.0	6145
582.2	6185
582.4	6210
582.6	6255
582.8	6293
583.0	6312
583.2	6329
583.4	6378
583.6	6415
583.8	6446
584.0	6461
584.2	6478
584.4	6499
584.6	6542
584.8	6583
585.0	6620
585.2	6658
585.4	6695
585.6	6714
585.8	6742
586.0	6757
586.2	6798
586.4	6843
586.6	6834
586.8	6846
587.0	6876
587.2	6912
587.4	6952
587.6	6975
587.8	6982
588.0	7039
588.2	7065
588.4	7092
588.6	7098
588.8	7122
589.0	7148
589.2	7186
589.4	7201
589.6	7201
589.8	7219
590.0	7252
590.2	7261
590.4	7292
590.6	7336
590.8	7349
591.0	7377
591.2	7377
591.4	7370
591.6	7395
591.8	7429
592.0	7464
592.2	7496
592.4	7501
592.6	7494
592.8	7505
593.0	7516
593.2	7548
593.4	7582
593.6	7601
593.8	7626
594.0	7655
594.2	7663
594.4	7679
594.6	7679
594.8	7701
595.0	7728
595.2	7745
595.4	7740
595.6	7759
595.8	7761
596.0	7799
596.2	7815
596.4	7824
596.6	7827
596.8	7843
597.0	7850
597.2	7852
597.4	7845
597.6	7850
597.8	7877
598.0	7909
598.2	7953
598.4	7960
598.6	7938
598.8	7931
599.0	7927
599.2	7943
599.4	7950
599.6	7959
599.8	7951
600.0	7963
600.2	7984
600.4	8021
600.6	8026
600.8	8046
601.0	8021
601.2	8003
601.4	8013
601.6	8034
601.8	8055
602.0	8074
602.2	8062
602.4	8049
602.6	8053
602.8	8064
603.0	8049
603.2	8038
603.4	8048
603.6	8052
603.8	8061
604.0	8084
604.2	8067
604.4	8047
604.6	8068
604.8	8078
605.0	8102
605.2	8108
605.4	8087
605.6	8055
605.8	8059
606.0	8026
606.2	8039
606.4	8039
606.6	8029
606.8	8037
607.0	8050
607.2	8039
607.4	8042
607.6	8050
607.8	8024
608.0	8011
608.2	8006
608.4	8037
608.6	8032
608.8	8025
609.0	7997
609.2	7967
609.4	7969
609.6	8009
609.8	7997
610.0	7977
610.2	7942
610.4	7921
610.6	7923
610.8	7951
611.0	7944
611.2	7932
611.4	7895
611.6	7882
611.8	7861
612.0	7870
612.2	7877
612.4	7881
612.6	7857
612.8	7842
613.0	7835
613.2	7828
613.4	7822
613.6	7828
613.8	7811
614.0	7818
614.2	7824
614.4	7812
614.6	7795
614.8	7767
615.0	7748
615.2	7727
615.4	7702
615.6	7706
615.8	7694
616.0	7670
616.2	7660
616.4	7636
616.6	7627
616.8	7635
617.0	7612
617.2	7614
617.4	7568
617.6	7546
617.8	7518
618.0	7511
618.2	7510
618.4	7535
618.6	7514
618.8	7504
619.0	7460
619.2	7430
619.4	7400
619.6	7388
619.8	7366
620.0	7366
620.2	7363
620.4	7358
620.6	7331
620.8	7298
621.0	7255
621.2	7242
621.4	7250
621.6	7255
621.8	7237
622.0	7199
622.2	7189
622.4	7155
622.6	7148
622.8	7134
623.0	7108
623.2	7075
623.4	7083
623.6	7058
623.8	7057
624.0	7046
624.2	7023
624.4	6972
624.6	6950
624.8	6919
625.0	6916
625.2	6921
625.4	6911
625.6	6885
625.8	6854
626.0	6820
626.2	6803
626.4	6760
626.6	6738
626.8	6718
627.0	6700
627.2	6691
627.4	6672
627.6	6633
627.8	6616
628.0	6599
628.2	6582
628.4	6548
628.6	6533
628.8	6513
629.0	6478
629.2	6468
629.4	6419
629.6	6391
629.8	6379
630.0	6369
630.2	6353
630.4	6346
630.6	6298
630.8	6283
631.0	6257
631.2	6244
631.4	6234
631.6	6222
631.8	6205
632.0	6202
632.2	6178
632.4	6148
632.6	6112
632.8	6070
633.0	6045
633.2	6049
633.4	6028
633.6	6012
633.8	5977
634.0	5949
634.2	5926
634.4	5929
634.6	5902
634.8	5864
635.0	5823
635.2	5794
635.4	5785
635.6	5780
635.8	5759
636.0	5722
636.2	5700
636.4	5678
636.6	5672
636.8	5651
637.0	5641
637.2	5610
637.4	5587
637.6	5545
637.8	5531
638.0	5506
638.2	5506
638.4	5484
638.6	5450
638.8	5404
639.0	5385
639.2	5363
639.4	5360
639.6	5344
639.8	5314
640.0	5280
640.2	5243
640.4	5225
640.6	5201
640.8	5175
641.0	5150
641.2	5132
641.4	5114
641.6	5104
641.8	5076
642.0	5052
642.2	5029
642.4	5006
642.6	4975
642.8	4952
643.0	4942
643.2	4926
643.4	4931
643.6	4891
643.8	4853
644.0	4828
644.2	4803
644.4	4785
644.6	4780
644.8	4760
645.0	4735
645.2	4704
645.4	4671
645.6	4649
645.8	4627
646.0	4618
646.2	4587
646.4	4559
646.6	4544
646.8	4530
647.0	4507
647.2	4486
647.4	4458
647.6	4437
647.8	4413
648.0	4388
648.2	4358
648.4	4339
648.6	4329
648.8	4303
649.0	4276
649.2	4262
649.4	4241
649.6	4229
649.8	4210
650.0	4184
650.2	4158
650.4	4138
650.6	4113
650.8	4098
651.0	4075
651.2	4073
651.4	4054
651.6	4030
651.8	3999
652.0	3973
652.2	3954
652.4	3949
652.6	3929
652.8	3907
653.0	3879
653.2	3859
653.4	3844
653.6	3822
653.8	3803
654.0	3779
654.2	3759
654.4	3739
654.6	3714
654.8	3685
655.0	3675
655.2	3652
655.4	3627
655.6	3606
655.8	3598
656.0	3592
656.2	3589
656.4	3580
656.6	3560
656.8	3536
657.0	3520
657.2	3490
657.4	3459
657.6	3439
657.8	3416
658.0	3398
658.2	3394
658.4	3369
658.6	3354
658.8	3348
659.0	3324
659.2	3312
659.4	3302
659.6	3272
659.8	3251
660.0	3230
660.2	3205
660.4	3188
660.6	3166
660.8	3158
661.0	3148
661.2	3122
661.4	3104
661.6	3078
661.8	3056
662.0	3063
662.2	3056
662.4	3036
662.6	3020
662.8	2987
663.0	2964
663.2	2952
663.4	2927
663.6	2915
663.8	2912
664.0	2905
664.2	2896
664.4	2874
664.6	2847
664.8	2828
665.0	2811
665.2	2804
665.4	2798
665.6	2787
665.8	2764
666.0	2746
666.2	2723
666.4	2707
666.6	2689
666.8	2683
667.0	2661
667.2	2660
667.4	2645
667.6	2620
667.8	2594
668.0	2572
668.2	2543
668.4	2538
668.6	2531
668.8	2522
669.0	2518
669.2	2489
669.4	2471
669.6	2461
669.8	2453
670.0	2450
670.2	2442
670.4	2402
670.6	2393
670.8	2376
671.0	2364
671.2	2349
671.4	2339
671.6	2310
671.8	2295
672.0	2281
672.2	2272
672.4	2250
672.6	2242
672.8	2226
673.0	2217
673.2	2216
673.4	2212
673.6	2196
673.8	2175
674.0	2148
674.2	2133
674.4	2127
674.6	2124
674.8	2123
675.0	2108
675.2	2089
675.4	2067
675.6	2057
675.8	2056
676.0	2053
676.2	2043
676.4	2024
676.6	1995
676.8	1991
677.0	1982
677.2	1970
677.4	1959
677.6	1943
677.8	1922
678.0	1918
678.2	1909
678.4	1908
678.6	1896
678.8	1883
679.0	1862
679.2	1843
679.4	1840
679.6	1842
679.8	1826
680.0	1815
680.2	1799
680.4	1777
680.6	1765
680.8	1757
681.0	1739
681.2	1737
681.4	1735
681.6	1721
681.8	1714
682.0	1698
682.2	1688
682.4	1679
682.6	1679
682.8	1668
683.0	1653
683.2	1634
683.4	1624
683.6	1614
683.8	1610
684.0	1600
684.2	1585
684.4	1569
684.6	1559
684.8	1557
685.0	1553
685.2	1544
685.4	1540
685.6	1529
685.8	1520
686.0	1509
686.2	1496
686.4	1475
686.6	1467
686.8	1472
687.0	1458
687.2	1455
687.4	1435
687.6	1422
687.8	1407
688.0	1405
688.2	1387
688.4	1388
688.6	1372
688.8	1371
689.0	1361
689.2	1352
689.4	1346
689.6	1345
689.8	1334
690.0	1327
690.2	1316
690.4	1309
690.6	1304
690.8	1297
691.0	1286
691.2	1276
691.4	1266
691.6	1257
691.8	1250
692.0	1246
692.2	1235
692.4	1227
692.6	1223
692.8	1215
693.0	1204
693.2	1199
693.4	1194
693.6	1197
693.8	1196
694.0	1191
694.2	1179
694.4	1164
694.6	1150
694.8	1148
695.0	1136
695.2	1127
695.4	1123
695.6	1115
695.8	1108
696.0	1115
696.2	1108
696.4	1097
696.6	1087
696.8	1078
697.0	1081
697.2	1078
697.4	1074
697.6	1060
697.8	1053
698.0	1052
698.2	1048
698.4	1033
698.6	1024
698.8	1012
699.0	1016
699.2	1016
699.4	1013
699.6	1001
699.8	991.3
700.0	984.1
700.2	989.2
700.4	981.8
700.6	976.3
700.8	968.4
701.0	962.2
701.2	952.6
701.4	955.0
701.6	947.9
701.8	943.5
702.0	940.5
702.2	933.9
702.4	923.3
702.6	917.0
702.8	915.6
703.0	912.3
703.2	904.4
703.4	895.8
703.6	891.8
703.8	888.3
704.0	890.9
704.2	883.3
704.4	869.9
704.6	860.1
704.8	862.6
705.0	860.5
705.2	860.8
705.4	854.1
705.6	837.9
705.8	832.3
706.0	827.6
706.2	823.2
706.4	822.1
706.6	818.3
706.8	811.9
707.0	812.6
707.2	803.2
707.4	802.2
707.6	794.2
707.8	783.2
708.0	775.7
708.2	768.7
708.4	763.8
708.6	763.6
708.8	754.0
709.0	746.6
709.2	742.0
709.4	743.1
709.6	744.3
709.8	742.2
710.0	735.8
710.2	729.5
710.4	724.3
710.6	719.0
710.8	710.1
711.0	707.6
711.2	709.3
711.4	706.8
711.6	700.0
711.8	690.3
712.0	681.4
712.2	681.5
712.4	680.2
712.6	683.1
712.8	673.7
713.0	665.0
713.2	659.6
713.4	653.8
713.6	644.5
713.8	646.2
714.0	645.3
714.2	643.0
714.4	650.8
714.6	649.0
714.8	641.1
715.0	635.1
715.2	628.4
715.4	616.3
715.6	609.8
715.8	606.1
716.0	606.0
716.2	601.4
716.4	598.5
716.6	593.8
716.8	585.0
717.0	586.5
717.2	583.8
717.4	573.8
717.6	572.2
717.8	566.7
718.0	565.9
718.2	561.8
718.4	562.8
718.6	560.8
718.8	560.0
719.0	553.9
719.2	550.0
719.4	542.2
719.6	543.7
719.8	538.0
720.0	529.5
720.2	523.9
720.4	517.4
720.6	516.7
720.8	516.6
721.0	514.1
721.2	511.5
721.4	507.4
721.6	499.4
721.8	497.0
722.0	490.4
722.2	483.3
722.4	481.8
722.6	481.4
722.8	477.9
723.0	476.9
723.2	471.3
723.4	465.6
723.6	461.0
723.8	457.1
724.0	452.4
724.2	443.7
724.4	440.7
724.6	440.9
724.8	441.8
725.0	441.8
725.2	440.4
725.4	433.1
725.6	425.6
725.8	424.2
726.0	423.6
726.2	426.6
726.4	424.3
726.6	419.3
726.8	412.4
727.0	409.9
727.2	405.9
727.4	406.1
727.6	402.7
727.8	395.5
728.0	393.8
728.2	387.0
728.4	383.9
728.6	382.9
728.8	380.6
729.0	379.6
729.2	385.7
729.4	382.5
729.6	375.0
729.8	365.7
730.0	358.8
730.2	354.3
730.4	357.4
730.6	361.1
730.8	359.0
731.0	350.2
731.2	349.3
731.4	343.5
731.6	346.5
731.8	347.3
732.0	344.3
732.2	335.4
732.4	331.6
732.6	324.9
732.8	325.7
733.0	324.2
733.2	323.2
733.4	324.2
733.6	317.1
733.8	311.9
734.0	309.7
734.2	308.1
734.4	307.6
734.6	308.9
734.8	301.2
735.0	301.6
735.2	301.7
735.4	298.0
735.6	293.2
735.8	289.8
736.0	285.2
736.2	289.0
736.4	291.5
736.6	294.9
736.8	291.7
737.0	287.2
737.2	282.3
737.4	278.9
737.6	271.5
737.8	267.6
738.0	262.0
738.2	259.9
738.4	264.8
738.6	269.8
738.8	269.4
739.0	264.2
739.2	261.4
739.4	255.2
739.6	249.7
739.8	246.7
740.0	244.8
740.2	242.2
740.4	241.1
740.6	242.8
740.8	241.5
741.0	240.3
741.2	238.2
741.4	236.1
741.6	232.8
741.8	234.2
742.0	234.5
742.2	232.5
742.4	230.6
742.6	228.2
742.8	226.0
743.0	220.8
743.2	220.3
743.4	217.7
743.6	217.0
743.8	215.9
744.0	213.1
744.2	212.8
744.4	211.8
744.6	208.0
744.8	205.3
745.0	205.7
745.2	205.5
745.4	205.1
745.6	201.3
745.8	198.7
746.0	195.8
746.2	194.3
746.4	195.2
746.6	189.7
746.8	187.5
747.0	188.5
747.2	190.2
747.4	189.9
747.6	191.5
747.8	191.7
748.0	190.2
748.2	190.1
748.4	187.3
748.6	182.0
748.8	178.0
749.0	178.7
749.2	178.4
749.4	176.9
749.6	175.3
749.8	172.7
750.0	168.6
750.2	167.8
750.4	166.9
750.6	165.1
750.8	165.8
751.0	165.9
751.2	165.8
751.4	166.3
751.6	165.3
751.8	162.5
752.0	160.2
752.2	161.2
752.4	162.0
752.6	161.2
752.8	157.1
753.0	149.9
753.2	145.2
753.4	146.8
753.6	149.2
753.8	151.7
754.0	151.7
754.2	150.4
754.4	149.6
754.6	149.9
754.8	147.3
755.0	145.8
755.2	143.0
755.4	142.1
755.6	143.3
755.8	144.2
756.0	142.3
756.2	141.3
756.4	136.0
756.6	134.8
756.8	133.7
757.0	134.0
757.2	135.9
757.4	136.0
757.6	132.3
757.8	132.7
758.0	130.5
758.2	128.6
758.4	128.0
758.6	126.7
758.8	126.1
759.0	127.4
759.2	126.2
759.4	123.9
759.6	120.1
759.8	115.7
760.0	114.4
760.2	115.4
760.4	117.2
760.6	118.0
760.8	117.8
761.0	114.9
761.2	115.1
761.4	115.9
761.6	116.9
761.8	117.3
762.0	115.5
762.2	110.9
762.4	109.2
762.6	109.6
762.8	109.9
763.0	108.4
763.2	105.7
763.4	103.3
763.6	103.1
763.8	104.0
764.0	105.8
764.2	106.0
764.4	106.7
764.6	108.0
764.8	107.4
765.0	104.4
765.2	103.2
765.4	103.2
765.6	104.7
765.8	104.4
766.0	102.6
766.2	99.00
766.4	96.76
766.6	96.77
766.8	98.10
767.0	96.79
767.2	96.68
767.4	95.86
767.6	95.93
767.8	96.98
768.0	95.63
768.2	94.09
768.4	92.27
768.6	90.12
768.8	89.71
769.0	90.05
769.2	90.79
769.4	90.51
769.6	88.50
769.8	87.03
770.0	86.62
770.2	85.30
770.4	83.98
770.6	83.26
770.8	83.76
771.0	84.37
771.2	83.65
771.4	83.43
771.6	83.12
771.8	83.52
772.0	82.83
772.2	80.09
772.4	76.00
772.6	75.37
772.8	75.04
773.0	76.05
773.2	74.59
773.4	74.37
773.6	75.00
773.8	74.23
774.0	73.75
774.2	74.45
774.4	72.02
774.6	71.99
774.8	73.34
775.0	72.84
775.2	72.95
775.4	71.99
775.6	70.61
775.8	70.32
776.0	70.31
776.2	71.82
776.4	72.60
776.6	71.99
776.8	70.93
777.0	70.22
777.2	69.31
777.4	69.85
777.6	68.90
777.8	68.43
778.0	67.09
778.2	65.53
778.4	65.02
778.6	64.35
778.8	60.48
779.0	60.82
779.2	61.59
779.4	61.94
779.6	63.79
779.8	64.86
780.0	60.93
780.2	60.58
780.4	61.59
780.6	62.68
780.8	62.96
781.0	63.08
781.2	61.10
781.4	60.81
781.6	60.21
781.8	60.99
782.0	59.08
782.2	57.66
782.4	57.31
782.6	58.45
782.8	59.37
783.0	58.34
783.2	57.40
783.4	54.82
783.6	53.98
783.8	54.91
784.0	55.89
784.2	53.66
784.4	54.22
784.6	53.46
784.8	54.98
785.0	54.82
785.2	54.98
785.4	53.66
785.6	54.16
785.8	53.91
786.0	54.07
786.2	52.50
786.4	51.53
786.6	50.53
786.8	50.78
787.0	50.42
787.2	52.06
787.4	52.85
787.6	53.97
787.8	53.92
788.0	52.43
788.2	50.62
788.4	51.05
788.6	50.55
788.8	50.05
789.0	50.03
789.2	50.33
789.4	49.91
789.6	50.31
789.8	49.94
790.0	48.94
790.2	48.21
790.4	48.69
790.6	46.84
790.8	45.83
791.0	44.51
791.2	44.79
791.4	45.35
791.6	47.82
791.8	47.22
792.0	47.85
792.2	47.34
792.4	47.90
792.6	47.56
792.8	46.83
793.0	44.03
793.2	43.21
793.4	42.48
793.6	43.90
793.8	44.95
794.0	44.81
794.2	45.04
794.4	45.49
794.6	43.42
794.8	42.89
795.0	43.27
795.2	44.40
795.4	45.30
795.6	44.85
795.8	43.21
796.0	41.73
796.2	41.30
796.4	43.09
796.6	41.86
796.8	39.58
797.0	39.44
797.2	37.93
797.4	39.79
797.6	42.21
797.8	42.92
798.0	42.71
798.2	41.75
798.4	38.92
798.6	39.28
798.8	39.28
799.0	39.68
799.2	39.97
799.4	39.13
799.6	38.07
799.8	37.81
800.0	39.13

