Sample:	'20211010A(EM)
File name:	R-CDs 4.FDS
Run date:	'14:33:06, 06/09/2023
Operator:	Administrator
Comment:	'

Instrument
Model:	F-4700 FL Spectrophotometer
Serial number:	2019-001
ROM Version:	5J24010 00

Instrument parameters
Measurement type:	Wavelength scan
Scan mode:	Emission
Data mode:	Fluorescence
EX WL:	520.0 nm
EM  Start WL:	540.0 nm
EM  End WL:	800.0 nm
Scan speed:	1200 nm/min
Delay:	0.0 s
EX Slit:	10.0 nm
EM Slit:	10.0 nm
PMT Voltage:	660 V
Response:	0.002 s
Corrected spectra:	Off
Shutter control:	On

Processing performed
Savitsky-Golay smoothed
Smoothing order:	3
Number of points:	7
Number of times:	1

Peak integration
Integration method:	Rectangular
Sensitivity:	1
Threshold:	1.000

Peaks
No.	Start(nm)	Apex(nm)	End(nm)	Height(Data)	Valley(nm)	Valley(Data)
1	540.0	607.8	610.0	7890	610.0	7848
2	610.0	611.8	753.4	7912	753.4	168.1
3	753.4	754.0	762.2	174.6	762.2	127.0
4	762.2	763.2	773.8	131.2	773.8	85.01
5	773.8	774.8	776.4	89.34	776.4	76.58
6	776.4	777.2	780.6	81.19	780.6	67.23
7	780.6	781.6	782.2	69.77	782.2	65.76
8	782.2	782.6	787.6	69.16	787.6	58.26
9	787.6	788.0	792.4	59.47	792.4	48.96
10	792.4	793.2	797.8	52.17	797.8	44.80

Data points
nm	Data
540.0	688.8
540.2	685.3
540.4	691.5
540.6	702.9
540.8	715.8
541.0	715.8
541.2	722.2
541.4	726.3
541.6	732.9
541.8	743.9
542.0	757.9
542.2	766.6
542.4	786.6
542.6	793.6
542.8	804.3
543.0	813.5
543.2	814.4
543.4	817.4
543.6	831.7
543.8	845.1
544.0	857.0
544.2	869.7
544.4	877.4
544.6	891.0
544.8	909.3
545.0	925.0
545.2	932.9
545.4	946.9
545.6	955.8
545.8	968.9
546.0	985.2
546.2	993.7
546.4	1001
546.6	1008
546.8	1011
547.0	1026
547.2	1047
547.4	1054
547.6	1069
547.8	1080
548.0	1089
548.2	1102
548.4	1118
548.6	1123
548.8	1129
549.0	1140
549.2	1154
549.4	1172
549.6	1193
549.8	1208
550.0	1217
550.2	1222
550.4	1240
550.6	1258
550.8	1271
551.0	1285
551.2	1296
551.4	1298
551.6	1311
551.8	1332
552.0	1352
552.2	1377
552.4	1397
552.6	1407
552.8	1412
553.0	1423
553.2	1442
553.4	1458
553.6	1476
553.8	1496
554.0	1510
554.2	1515
554.4	1532
554.6	1542
554.8	1564
555.0	1586
555.2	1607
555.4	1610
555.6	1626
555.8	1640
556.0	1672
556.2	1697
556.4	1721
556.6	1736
556.8	1761
557.0	1775
557.2	1793
557.4	1810
557.6	1822
557.8	1844
558.0	1858
558.2	1877
558.4	1893
558.6	1909
558.8	1926
559.0	1948
559.2	1947
559.4	1960
559.6	1978
559.8	2005
560.0	2037
560.2	2072
560.4	2091
560.6	2101
560.8	2117
561.0	2141
561.2	2173
561.4	2200
561.6	2232
561.8	2247
562.0	2257
562.2	2280
562.4	2315
562.6	2334
562.8	2356
563.0	2381
563.2	2389
563.4	2416
563.6	2446
563.8	2469
564.0	2493
564.2	2528
564.4	2544
564.6	2567
564.8	2587
565.0	2612
565.2	2640
565.4	2677
565.6	2707
565.8	2731
566.0	2751
566.2	2765
566.4	2784
566.6	2815
566.8	2845
567.0	2878
567.2	2903
567.4	2925
567.6	2959
567.8	2991
568.0	3025
568.2	3043
568.4	3057
568.6	3076
568.8	3098
569.0	3133
569.2	3179
569.4	3204
569.6	3230
569.8	3250
570.0	3274
570.2	3307
570.4	3327
570.6	3346
570.8	3370
571.0	3395
571.2	3437
571.4	3474
571.6	3500
571.8	3530
572.0	3559
572.2	3584
572.4	3625
572.6	3654
572.8	3685
573.0	3721
573.2	3756
573.4	3781
573.6	3820
573.8	3842
574.0	3867
574.2	3901
574.4	3933
574.6	3960
574.8	3990
575.0	4023
575.2	4049
575.4	4086
575.6	4124
575.8	4170
576.0	4197
576.2	4225
576.4	4233
576.6	4259
576.8	4280
577.0	4320
577.2	4356
577.4	4392
577.6	4428
577.8	4485
578.0	4524
578.2	4554
578.4	4577
578.6	4594
578.8	4598
579.0	4635
579.2	4687
579.4	4725
579.6	4765
579.8	4808
580.0	4842
580.2	4881
580.4	4914
580.6	4930
580.8	4941
581.0	4973
581.2	5020
581.4	5055
581.6	5103
581.8	5124
582.0	5156
582.2	5181
582.4	5212
582.6	5252
582.8	5295
583.0	5306
583.2	5342
583.4	5358
583.6	5396
583.8	5438
584.0	5468
584.2	5495
584.4	5529
584.6	5576
584.8	5606
585.0	5615
585.2	5632
585.4	5635
585.6	5657
585.8	5706
586.0	5750
586.2	5801
586.4	5852
586.6	5888
586.8	5919
587.0	5946
587.2	5975
587.4	5996
587.6	6030
587.8	6072
588.0	6108
588.2	6146
588.4	6187
588.6	6207
588.8	6229
589.0	6240
589.2	6269
589.4	6300
589.6	6329
589.8	6369
590.0	6380
590.2	6387
590.4	6419
590.6	6463
590.8	6484
591.0	6516
591.2	6526
591.4	6526
591.6	6549
591.8	6587
592.0	6624
592.2	6644
592.4	6666
592.6	6692
592.8	6733
593.0	6762
593.2	6818
593.4	6821
593.6	6834
593.8	6858
594.0	6875
594.2	6893
594.4	6931
594.6	6951
594.8	6990
595.0	7039
595.2	7050
595.4	7064
595.6	7062
595.8	7083
596.0	7114
596.2	7150
596.4	7150
596.6	7159
596.8	7171
597.0	7198
597.2	7223
597.4	7249
597.6	7267
597.8	7290
598.0	7318
598.2	7344
598.4	7354
598.6	7378
598.8	7400
599.0	7409
599.2	7412
599.4	7441
599.6	7447
599.8	7467
600.0	7490
600.2	7498
600.4	7506
600.6	7526
600.8	7546
601.0	7549
601.2	7553
601.4	7549
601.6	7550
601.8	7545
602.0	7573
602.2	7610
602.4	7654
602.6	7683
602.8	7709
603.0	7718
603.2	7713
603.4	7732
603.6	7740
603.8	7731
604.0	7739
604.2	7752
604.4	7751
604.6	7752
604.8	7743
605.0	7725
605.2	7729
605.4	7763
605.6	7786
605.8	7796
606.0	7826
606.2	7842
606.4	7846
606.6	7868
606.8	7848
607.0	7846
607.2	7869
607.4	7879
607.6	7874
607.8	7890
608.0	7879
608.2	7874
608.4	7872
608.6	7879
608.8	7869
609.0	7874
609.2	7856
609.4	7850
609.6	7852
609.8	7864
610.0	7848
610.2	7861
610.4	7860
610.6	7883
610.8	7882
611.0	7880
611.2	7858
611.4	7875
611.6	7900
611.8	7912
612.0	7896
612.2	7893
612.4	7874
612.6	7869
612.8	7877
613.0	7852
613.2	7839
613.4	7836
613.6	7829
613.8	7820
614.0	7823
614.2	7811
614.4	7822
614.6	7841
614.8	7840
615.0	7808
615.2	7786
615.4	7755
615.6	7740
615.8	7739
616.0	7738
616.2	7735
616.4	7737
616.6	7722
616.8	7708
617.0	7710
617.2	7722
617.4	7710
617.6	7690
617.8	7661
618.0	7630
618.2	7621
618.4	7632
618.6	7612
618.8	7597
619.0	7590
619.2	7592
619.4	7565
619.6	7552
619.8	7529
620.0	7506
620.2	7493
620.4	7474
620.6	7462
620.8	7454
621.0	7465
621.2	7450
621.4	7430
621.6	7378
621.8	7375
622.0	7362
622.2	7371
622.4	7374
622.6	7356
622.8	7326
623.0	7306
623.2	7269
623.4	7244
623.6	7241
623.8	7220
624.0	7206
624.2	7194
624.4	7166
624.6	7146
624.8	7128
625.0	7104
625.2	7077
625.4	7068
625.6	7059
625.8	7053
626.0	7029
626.2	6989
626.4	6944
626.6	6925
626.8	6920
627.0	6938
627.2	6937
627.4	6910
627.6	6870
627.8	6852
628.0	6814
628.2	6820
628.4	6804
628.6	6790
628.8	6768
629.0	6744
629.2	6705
629.4	6682
629.6	6657
629.8	6649
630.0	6641
630.2	6618
630.4	6601
630.6	6582
630.8	6556
631.0	6517
631.2	6502
631.4	6483
631.6	6458
631.8	6433
632.0	6412
632.2	6376
632.4	6352
632.6	6330
632.8	6302
633.0	6267
633.2	6260
633.4	6257
633.6	6234
633.8	6233
634.0	6205
634.2	6174
634.4	6146
634.6	6117
634.8	6097
635.0	6079
635.2	6052
635.4	6039
635.6	6024
635.8	5997
636.0	5991
636.2	5965
636.4	5947
636.6	5938
636.8	5913
637.0	5871
637.2	5829
637.4	5796
637.6	5771
637.8	5786
638.0	5786
638.2	5764
638.4	5730
638.6	5699
638.8	5668
639.0	5657
639.2	5627
639.4	5596
639.6	5574
639.8	5556
640.0	5539
640.2	5521
640.4	5498
640.6	5481
640.8	5467
641.0	5445
641.2	5422
641.4	5391
641.6	5369
641.8	5338
642.0	5311
642.2	5280
642.4	5264
642.6	5245
642.8	5234
643.0	5214
643.2	5185
643.4	5151
643.6	5140
643.8	5121
644.0	5098
644.2	5068
644.4	5040
644.6	5021
644.8	5010
645.0	4994
645.2	4966
645.4	4945
645.6	4921
645.8	4892
646.0	4857
646.2	4836
646.4	4817
646.6	4801
646.8	4781
647.0	4772
647.2	4746
647.4	4732
647.6	4714
647.8	4684
648.0	4662
648.2	4661
648.4	4637
648.6	4623
648.8	4583
649.0	4548
649.2	4515
649.4	4500
649.6	4477
649.8	4475
650.0	4454
650.2	4422
650.4	4380
650.6	4361
650.8	4330
651.0	4328
651.2	4318
651.4	4299
651.6	4280
651.8	4275
652.0	4249
652.2	4226
652.4	4185
652.6	4159
652.8	4135
653.0	4115
653.2	4098
653.4	4084
653.6	4070
653.8	4064
654.0	4046
654.2	4027
654.4	4020
654.6	3998
654.8	3981
655.0	3972
655.2	3939
655.4	3894
655.6	3873
655.8	3847
656.0	3839
656.2	3833
656.4	3798
656.6	3776
656.8	3768
657.0	3764
657.2	3763
657.4	3749
657.6	3719
657.8	3707
658.0	3682
658.2	3644
658.4	3619
658.6	3600
658.8	3585
659.0	3581
659.2	3566
659.4	3539
659.6	3534
659.8	3504
660.0	3479
660.2	3468
660.4	3442
660.6	3420
660.8	3404
661.0	3380
661.2	3358
661.4	3351
661.6	3342
661.8	3328
662.0	3305
662.2	3287
662.4	3256
662.6	3235
662.8	3214
663.0	3203
663.2	3192
663.4	3180
663.6	3158
663.8	3141
664.0	3116
664.2	3114
664.4	3095
664.6	3081
664.8	3074
665.0	3065
665.2	3037
665.4	3019
665.6	2993
665.8	2972
666.0	2969
666.2	2951
666.4	2928
666.6	2906
666.8	2897
667.0	2886
667.2	2874
667.4	2855
667.6	2856
667.8	2831
668.0	2815
668.2	2789
668.4	2771
668.6	2759
668.8	2764
669.0	2741
669.2	2738
669.4	2717
669.6	2698
669.8	2668
670.0	2646
670.2	2621
670.4	2622
670.6	2613
670.8	2604
671.0	2575
671.2	2555
671.4	2536
671.6	2520
671.8	2512
672.0	2510
672.2	2500
672.4	2485
672.6	2464
672.8	2449
673.0	2434
673.2	2428
673.4	2414
673.6	2402
673.8	2386
674.0	2372
674.2	2360
674.4	2362
674.6	2348
674.8	2335
675.0	2311
675.2	2289
675.4	2266
675.6	2258
675.8	2246
676.0	2230
676.2	2214
676.4	2205
676.6	2186
676.8	2180
677.0	2173
677.2	2157
677.4	2144
677.6	2124
677.8	2104
678.0	2102
678.2	2094
678.4	2090
678.6	2087
678.8	2072
679.0	2054
679.2	2038
679.4	2009
679.6	1997
679.8	1980
680.0	1970
680.2	1960
680.4	1948
680.6	1948
680.8	1941
681.0	1923
681.2	1902
681.4	1879
681.6	1878
681.8	1882
682.0	1874
682.2	1860
682.4	1839
682.6	1823
682.8	1823
683.0	1817
683.2	1803
683.4	1786
683.6	1775
683.8	1766
684.0	1759
684.2	1751
684.4	1742
684.6	1734
684.8	1727
685.0	1716
685.2	1697
685.4	1677
685.6	1666
685.8	1656
686.0	1649
686.2	1633
686.4	1618
686.6	1598
686.8	1594
687.0	1587
687.2	1591
687.4	1577
687.6	1565
687.8	1557
688.0	1557
688.2	1553
688.4	1552
688.6	1535
688.8	1525
689.0	1521
689.2	1512
689.4	1500
689.6	1483
689.8	1466
690.0	1461
690.2	1449
690.4	1434
690.6	1419
690.8	1419
691.0	1418
691.2	1416
691.4	1407
691.6	1395
691.8	1384
692.0	1384
692.2	1386
692.4	1376
692.6	1368
692.8	1349
693.0	1329
693.2	1315
693.4	1313
693.6	1307
693.8	1302
694.0	1291
694.2	1285
694.4	1275
694.6	1271
694.8	1268
695.0	1263
695.2	1266
695.4	1264
695.6	1250
695.8	1236
696.0	1224
696.2	1214
696.4	1218
696.6	1212
696.8	1203
697.0	1196
697.2	1180
697.4	1171
697.6	1174
697.8	1171
698.0	1170
698.2	1171
698.4	1156
698.6	1143
698.8	1139
699.0	1130
699.2	1122
699.4	1108
699.6	1094
699.8	1087
700.0	1085
700.2	1085
700.4	1086
700.6	1080
700.8	1075
701.0	1071
701.2	1057
701.4	1050
701.6	1040
701.8	1035
702.0	1036
702.2	1031
702.4	1022
702.6	1017
702.8	1007
703.0	1004
703.2	1007
703.4	1005
703.6	999.9
703.8	996.7
704.0	987.3
704.2	977.8
704.4	973.2
704.6	958.7
704.8	953.6
705.0	955.8
705.2	953.2
705.4	953.0
705.6	953.7
705.8	942.3
706.0	931.5
706.2	923.1
706.4	908.5
706.6	904.0
706.8	901.7
707.0	906.9
707.2	901.6
707.4	896.8
707.6	888.3
707.8	881.2
708.0	868.3
708.2	866.2
708.4	860.7
708.6	856.7
708.8	861.6
709.0	858.6
709.2	852.4
709.4	849.1
709.6	846.1
709.8	833.2
710.0	825.9
710.2	817.9
710.4	810.7
710.6	805.6
710.8	801.3
711.0	791.3
711.2	790.0
711.4	793.7
711.6	794.3
711.8	793.6
712.0	786.4
712.2	778.5
712.4	772.3
712.6	765.3
712.8	751.1
713.0	746.2
713.2	743.2
713.4	742.8
713.6	741.4
713.8	739.4
714.0	727.7
714.2	726.6
714.4	722.8
714.6	717.9
714.8	711.2
715.0	708.4
715.2	698.9
715.4	693.1
715.6	689.7
715.8	680.9
716.0	679.9
716.2	681.9
716.4	676.0
716.6	670.8
716.8	663.0
717.0	650.1
717.2	647.4
717.4	645.9
717.6	640.0
717.8	642.6
718.0	633.3
718.2	627.7
718.4	627.2
718.6	627.4
718.8	627.1
719.0	632.3
719.2	623.5
719.4	612.2
719.6	600.7
719.8	590.0
720.0	587.0
720.2	585.4
720.4	583.0
720.6	583.4
720.8	577.9
721.0	571.3
721.2	567.4
721.4	561.5
721.6	558.0
721.8	559.6
722.0	552.0
722.2	550.3
722.4	548.6
722.6	547.4
722.8	544.9
723.0	544.2
723.2	535.2
723.4	528.8
723.6	525.0
723.8	517.9
724.0	513.0
724.2	508.1
724.4	503.8
724.6	501.8
724.8	502.0
725.0	497.1
725.2	495.4
725.4	488.0
725.6	486.5
725.8	483.7
726.0	479.1
726.2	477.2
726.4	475.3
726.6	473.5
726.8	469.7
727.0	465.7
727.2	461.3
727.4	456.6
727.6	448.8
727.8	447.5
728.0	439.0
728.2	435.9
728.4	432.0
728.6	425.1
728.8	424.4
729.0	427.5
729.2	427.9
729.4	426.6
729.6	422.9
729.8	419.2
730.0	417.8
730.2	412.9
730.4	411.8
730.6	406.1
730.8	399.2
731.0	397.6
731.2	393.9
731.4	392.2
731.6	391.2
731.8	387.8
732.0	386.8
732.2	388.8
732.4	386.2
732.6	383.3
732.8	376.4
733.0	369.3
733.2	365.1
733.4	362.6
733.6	359.7
733.8	357.6
734.0	356.5
734.2	356.6
734.4	354.4
734.6	353.9
734.8	353.2
735.0	347.3
735.2	345.2
735.4	342.1
735.6	340.7
735.8	336.7
736.0	335.3
736.2	328.3
736.4	329.3
736.6	324.9
736.8	324.7
737.0	321.3
737.2	320.1
737.4	313.0
737.6	309.9
737.8	307.3
738.0	303.6
738.2	304.1
738.4	303.8
738.6	299.0
738.8	295.3
739.0	295.8
739.2	292.9
739.4	292.0
739.6	292.5
739.8	289.3
740.0	285.2
740.2	283.5
740.4	281.4
740.6	277.7
740.8	278.7
741.0	277.1
741.2	276.0
741.4	274.5
741.6	271.2
741.8	263.8
742.0	260.9
742.2	260.3
742.4	261.7
742.6	261.4
742.8	260.3
743.0	259.5
743.2	255.5
743.4	253.6
743.6	252.2
743.8	249.6
744.0	248.3
744.2	250.2
744.4	245.5
744.6	244.7
744.8	243.6
745.0	239.5
745.2	237.7
745.4	237.9
745.6	235.4
745.8	234.6
746.0	232.1
746.2	229.8
746.4	226.3
746.6	224.2
746.8	221.7
747.0	218.9
747.2	218.7
747.4	219.7
747.6	219.2
747.8	220.3
748.0	217.4
748.2	215.3
748.4	212.9
748.6	207.4
748.8	201.7
749.0	201.9
749.2	199.7
749.4	199.8
749.6	199.1
749.8	198.7
750.0	197.9
750.2	198.4
750.4	197.1
750.6	192.3
750.8	188.5
751.0	186.8
751.2	187.9
751.4	186.3
751.6	185.9
751.8	188.5
752.0	187.2
752.2	187.3
752.4	185.6
752.6	181.7
752.8	178.0
753.0	175.9
753.2	168.8
753.4	168.1
753.6	169.1
753.8	173.2
754.0	174.6
754.2	173.7
754.4	170.7
754.6	170.5
754.8	170.1
755.0	168.2
755.2	163.1
755.4	162.1
755.6	160.3
755.8	159.7
756.0	159.3
756.2	159.8
756.4	160.3
756.6	162.6
756.8	161.8
757.0	159.7
757.2	156.2
757.4	155.2
757.6	154.4
757.8	153.2
758.0	151.4
758.2	150.3
758.4	149.9
758.6	149.3
758.8	147.2
759.0	146.3
759.2	145.1
759.4	142.3
759.6	142.5
759.8	141.7
760.0	138.9
760.2	137.2
760.4	136.1
760.6	134.8
760.8	136.1
761.0	134.5
761.2	133.2
761.4	130.6
761.6	128.9
761.8	128.3
762.0	128.8
762.2	127.0
762.4	129.1
762.6	128.9
762.8	130.0
763.0	128.9
763.2	131.2
763.4	127.6
763.6	125.6
763.8	123.6
764.0	123.0
764.2	121.9
764.4	125.4
764.6	123.9
764.8	121.9
765.0	120.9
765.2	117.0
765.4	116.0
765.6	115.5
765.8	115.2
766.0	112.9
766.2	111.2
766.4	107.9
766.6	108.7
766.8	110.1
767.0	111.6
767.2	110.3
767.4	109.3
767.6	106.0
767.8	104.1
768.0	103.8
768.2	104.2
768.4	106.5
768.6	107.8
768.8	105.6
769.0	103.8
769.2	103.4
769.4	101.1
769.6	102.1
769.8	98.76
770.0	97.51
770.2	96.39
770.4	97.83
770.6	97.28
770.8	97.69
771.0	97.06
771.2	98.05
771.4	95.71
771.6	96.08
771.8	95.67
772.0	93.66
772.2	92.52
772.4	90.63
772.6	87.44
772.8	89.78
773.0	89.81
773.2	88.43
773.4	86.93
773.6	86.57
773.8	85.01
774.0	85.92
774.2	86.57
774.4	88.74
774.6	89.17
774.8	89.34
775.0	87.02
775.2	83.78
775.4	82.37
775.6	81.50
775.8	79.64
776.0	78.79
776.2	77.94
776.4	76.58
776.6	77.41
776.8	78.46
777.0	79.70
777.2	81.19
777.4	78.57
777.6	77.49
777.8	75.49
778.0	73.91
778.2	74.95
778.4	76.46
778.6	74.66
778.8	76.02
779.0	74.62
779.2	72.68
779.4	71.34
779.6	70.79
779.8	70.83
780.0	69.71
780.2	69.35
780.4	69.05
780.6	67.23
780.8	67.68
781.0	68.74
781.2	69.21
781.4	69.63
781.6	69.77
781.8	68.00
782.0	66.07
782.2	65.76
782.4	67.89
782.6	69.16
782.8	69.00
783.0	68.08
783.2	66.49
783.4	66.08
783.6	65.52
783.8	66.14
784.0	65.00
784.2	63.94
784.4	64.81
784.6	63.39
784.8	62.81
785.0	63.59
785.2	63.26
785.4	60.88
785.6	60.53
785.8	58.12
786.0	57.65
786.2	58.79
786.4	59.58
786.6	58.94
786.8	59.28
787.0	59.15
787.2	58.53
787.4	58.76
787.6	58.26
787.8	59.03
788.0	59.47
788.2	59.30
788.4	59.24
788.6	59.15
788.8	59.13
789.0	58.74
789.2	57.33
789.4	55.22
789.6	54.61
789.8	54.45
790.0	54.54
790.2	53.71
790.4	53.87
790.6	53.83
790.8	54.08
791.0	53.39
791.2	51.79
791.4	51.44
791.6	53.17
791.8	53.09
792.0	52.15
792.2	50.64
792.4	48.96
792.6	49.38
792.8	51.14
793.0	51.52
793.2	52.17
793.4	51.39
793.6	50.68
793.8	50.61
794.0	49.80
794.2	49.02
794.4	50.13
794.6	49.66
794.8	49.58
795.0	49.90
795.2	49.57
795.4	48.40
795.6	49.10
795.8	48.49
796.0	47.07
796.2	47.30
796.4	47.90
796.6	46.91
796.8	48.22
797.0	49.16
797.2	47.94
797.4	47.06
797.6	46.94
797.8	44.80
798.0	44.89
798.2	45.80
798.4	46.87
798.6	47.48
798.8	49.43
799.0	48.81
799.2	47.73
799.4	46.69
799.6	46.32
799.8	45.09
800.0	42.17

