Sample:	'20211010A(EM)
File name:	R-CDs 6 600uM.FDS
Run date:	'15:18:11, 06/09/2023
Operator:	Administrator
Comment:	'

Instrument
Model:	F-4700 FL Spectrophotometer
Serial number:	2019-001
ROM Version:	5J24010 00

Instrument parameters
Measurement type:	Wavelength scan
Scan mode:	Emission
Data mode:	Fluorescence
EX WL:	520.0 nm
EM  Start WL:	540.0 nm
EM  End WL:	800.0 nm
Scan speed:	1200 nm/min
Delay:	0.0 s
EX Slit:	10.0 nm
EM Slit:	10.0 nm
PMT Voltage:	650 V
Response:	0.002 s
Corrected spectra:	Off
Shutter control:	On

Processing performed
Savitsky-Golay smoothed
Smoothing order:	3
Number of points:	7
Number of times:	1

Peak integration
Integration method:	Rectangular
Sensitivity:	1
Threshold:	1.000

Peaks
No.	Start(nm)	Apex(nm)	End(nm)	Height(Data)	Valley(nm)	Valley(Data)
1	540.0	592.0	592.8	2072	592.8	2046
2	592.8	595.2	596.0	2102	596.0	2071
3	596.0	596.4	598.0	2094	598.0	2081
4	598.0	598.6	599.2	2096	599.2	2057
5	599.2	601.6	602.2	2097	602.2	2080
6	602.2	602.8	606.8	2101	606.8	2023
7	606.8	607.4	608.8	2048	608.8	2021
8	608.8	609.8	611.4	2037	611.4	1969
9	611.4	612.0	734.8	1984	734.8	103.2
10	734.8	735.4	737.2	108.8	737.2	93.24
11	737.2	737.8	743.8	98.00	743.8	75.87
12	743.8	744.6	747.0	80.10	747.0	68.67
13	747.0	747.4	749.8	71.49	749.8	58.13
14	749.8	750.8	752.8	63.22	752.8	55.43
15	752.8	753.8	759.2	59.41	759.2	45.89
16	759.2	760.2	764.2	47.92	764.2	38.62
17	764.2	764.8	771.0	41.48	771.0	31.06
18	771.0	772.2	773.0	35.23	773.0	28.42
19	773.0	774.4	776.2	31.59	776.2	28.29
20	776.2	777.2	779.6	30.14	779.6	24.89
21	779.6	780.4	781.4	26.99	781.4	24.33
22	781.4	782.8	786.8	26.24	786.8	20.46
23	786.8	789.6	794.4	22.71	794.4	17.69
24	794.4	796.4	800.0	21.18	800.0	16.20

Data points
nm	Data
540.0	213.2
540.2	218.3
540.4	221.1
540.6	222.6
540.8	220.6
541.0	228.2
541.2	236.0
541.4	235.9
541.6	236.0
541.8	236.0
542.0	236.0
542.2	238.5
542.4	245.5
542.6	247.6
542.8	246.0
543.0	245.4
543.2	246.8
543.4	246.7
543.6	246.3
543.8	249.7
544.0	252.5
544.2	256.0
544.4	258.8
544.6	261.7
544.8	258.3
545.0	264.6
545.2	269.8
545.4	271.7
545.6	272.7
545.8	275.2
546.0	274.6
546.2	281.8
546.4	282.4
546.6	280.6
546.8	281.9
547.0	286.9
547.2	288.3
547.4	291.2
547.6	289.5
547.8	292.0
548.0	294.2
548.2	300.7
548.4	306.1
548.6	306.7
548.8	304.8
549.0	306.8
549.2	307.5
549.4	314.3
549.6	322.4
549.8	323.1
550.0	324.0
550.2	325.5
550.4	325.6
550.6	328.3
550.8	333.6
551.0	336.2
551.2	342.0
551.4	346.3
551.6	347.7
551.8	347.9
552.0	349.6
552.2	351.1
552.4	352.1
552.6	360.9
552.8	368.7
553.0	371.7
553.2	378.8
553.4	384.6
553.6	390.0
553.8	398.6
554.0	400.9
554.2	401.9
554.4	408.4
554.6	410.4
554.8	414.5
555.0	422.2
555.2	428.8
555.4	439.6
555.6	447.2
555.8	448.0
556.0	449.1
556.2	453.0
556.4	457.6
556.6	464.5
556.8	472.7
557.0	477.3
557.2	485.4
557.4	489.9
557.6	496.2
557.8	505.2
558.0	516.4
558.2	523.0
558.4	530.1
558.6	531.9
558.8	534.0
559.0	542.4
559.2	552.8
559.4	569.8
559.6	585.7
559.8	593.8
560.0	596.1
560.2	600.3
560.4	603.8
560.6	617.2
560.8	627.5
561.0	637.2
561.2	642.2
561.4	648.9
561.6	654.4
561.8	661.8
562.0	667.0
562.2	681.3
562.4	697.4
562.6	716.6
562.8	720.5
563.0	723.7
563.2	728.4
563.4	742.0
563.6	759.9
563.8	778.4
564.0	783.7
564.2	796.4
564.4	803.7
564.6	819.1
564.8	833.1
565.0	846.4
565.2	858.4
565.4	866.4
565.6	864.0
565.8	880.0
566.0	895.6
566.2	906.3
566.4	912.8
566.6	915.7
566.8	925.5
567.0	955.4
567.2	981.0
567.4	995.3
567.6	1000
567.8	1004
568.0	1016
568.2	1038
568.4	1057
568.6	1081
568.8	1093
569.0	1103
569.2	1114
569.4	1125
569.6	1137
569.8	1148
570.0	1164
570.2	1180
570.4	1208
570.6	1226
570.8	1246
571.0	1248
571.2	1254
571.4	1261
571.6	1291
571.8	1308
572.0	1324
572.2	1329
572.4	1329
572.6	1345
572.8	1369
573.0	1385
573.2	1405
573.4	1412
573.6	1420
573.8	1438
574.0	1449
574.2	1467
574.4	1489
574.6	1501
574.8	1506
575.0	1516
575.2	1525
575.4	1537
575.6	1553
575.8	1578
576.0	1595
576.2	1620
576.4	1634
576.6	1638
576.8	1639
577.0	1652
577.2	1666
577.4	1683
577.6	1696
577.8	1707
578.0	1714
578.2	1723
578.4	1729
578.6	1734
578.8	1745
579.0	1758
579.2	1770
579.4	1771
579.6	1773
579.8	1783
580.0	1804
580.2	1818
580.4	1832
580.6	1841
580.8	1857
581.0	1866
581.2	1873
581.4	1863
581.6	1866
581.8	1862
582.0	1879
582.2	1883
582.4	1894
582.6	1901
582.8	1918
583.0	1913
583.2	1929
583.4	1926
583.6	1924
583.8	1921
584.0	1926
584.2	1935
584.4	1960
584.6	1966
584.8	1972
585.0	1969
585.2	1970
585.4	1973
585.6	1981
585.8	1982
586.0	1992
586.2	1992
586.4	1995
586.6	1997
586.8	2005
587.0	2004
587.2	2009
587.4	2006
587.6	2016
587.8	2017
588.0	2018
588.2	2016
588.4	2019
588.6	2017
588.8	2025
589.0	2031
589.2	2036
589.4	2034
589.6	2030
589.8	2027
590.0	2028
590.2	2038
590.4	2041
590.6	2043
590.8	2043
591.0	2052
591.2	2052
591.4	2052
591.6	2053
591.8	2059
592.0	2072
592.2	2072
592.4	2066
592.6	2052
592.8	2046
593.0	2052
593.2	2070
593.4	2073
593.6	2074
593.8	2059
594.0	2058
594.2	2058
594.4	2060
594.6	2072
594.8	2082
595.0	2090
595.2	2102
595.4	2095
595.6	2082
595.8	2073
596.0	2071
596.2	2083
596.4	2094
596.6	2086
596.8	2086
597.0	2085
597.2	2083
597.4	2093
597.6	2087
597.8	2084
598.0	2081
598.2	2088
598.4	2093
598.6	2096
598.8	2083
599.0	2070
599.2	2057
599.4	2061
599.6	2075
599.8	2081
600.0	2083
600.2	2073
600.4	2076
600.6	2085
600.8	2095
601.0	2091
601.2	2095
601.4	2095
601.6	2097
601.8	2090
602.0	2087
602.2	2080
602.4	2086
602.6	2097
602.8	2101
603.0	2091
603.2	2083
603.4	2069
603.6	2073
603.8	2074
604.0	2079
604.2	2078
604.4	2077
604.6	2073
604.8	2070
605.0	2075
605.2	2071
605.4	2060
605.6	2052
605.8	2057
606.0	2050
606.2	2052
606.4	2036
606.6	2029
606.8	2023
607.0	2033
607.2	2045
607.4	2048
607.6	2042
607.8	2043
608.0	2032
608.2	2027
608.4	2036
608.6	2032
608.8	2021
609.0	2031
609.2	2030
609.4	2028
609.6	2037
609.8	2037
610.0	2025
610.2	2019
610.4	2008
610.6	1997
610.8	1997
611.0	2000
611.2	1988
611.4	1969
611.6	1970
611.8	1980
612.0	1984
612.2	1982
612.4	1978
612.6	1973
612.8	1980
613.0	1980
613.2	1973
613.4	1959
613.6	1951
613.8	1952
614.0	1951
614.2	1951
614.4	1953
614.6	1946
614.8	1943
615.0	1938
615.2	1929
615.4	1934
615.6	1938
615.8	1931
616.0	1928
616.2	1911
616.4	1903
616.6	1899
616.8	1895
617.0	1885
617.2	1884
617.4	1883
617.6	1880
617.8	1884
618.0	1887
618.2	1882
618.4	1882
618.6	1872
618.8	1851
619.0	1848
619.2	1851
619.4	1842
619.6	1841
619.8	1843
620.0	1847
620.2	1848
620.4	1850
620.6	1842
620.8	1836
621.0	1830
621.2	1831
621.4	1817
621.6	1815
621.8	1811
622.0	1805
622.2	1796
622.4	1792
622.6	1781
622.8	1784
623.0	1789
623.2	1795
623.4	1798
623.6	1791
623.8	1782
624.0	1770
624.2	1756
624.4	1749
624.6	1752
624.8	1751
625.0	1758
625.2	1763
625.4	1757
625.6	1742
625.8	1731
626.0	1727
626.2	1726
626.4	1726
626.6	1728
626.8	1723
627.0	1714
627.2	1703
627.4	1691
627.6	1673
627.8	1673
628.0	1675
628.2	1673
628.4	1664
628.6	1668
628.8	1664
629.0	1668
629.2	1662
629.4	1654
629.6	1644
629.8	1639
630.0	1625
630.2	1620
630.4	1622
630.6	1618
630.8	1616
631.0	1601
631.2	1589
631.4	1593
631.6	1597
631.8	1603
632.0	1606
632.2	1596
632.4	1589
632.6	1584
632.8	1574
633.0	1576
633.2	1570
633.4	1562
633.6	1551
633.8	1538
634.0	1531
634.2	1524
634.4	1517
634.6	1517
634.8	1518
635.0	1511
635.2	1516
635.4	1512
635.6	1517
635.8	1508
636.0	1499
636.2	1489
636.4	1483
636.6	1469
636.8	1471
637.0	1460
637.2	1459
637.4	1463
637.6	1463
637.8	1453
638.0	1451
638.2	1438
638.4	1425
638.6	1416
638.8	1406
639.0	1402
639.2	1398
639.4	1394
639.6	1396
639.8	1395
640.0	1384
640.2	1387
640.4	1374
640.6	1370
640.8	1365
641.0	1358
641.2	1351
641.4	1346
641.6	1339
641.8	1338
642.0	1328
642.2	1323
642.4	1320
642.6	1312
642.8	1310
643.0	1307
643.2	1299
643.4	1298
643.6	1293
643.8	1288
644.0	1287
644.2	1282
644.4	1273
644.6	1271
644.8	1267
645.0	1257
645.2	1257
645.4	1248
645.6	1238
645.8	1236
646.0	1243
646.2	1236
646.4	1236
646.6	1227
646.8	1220
647.0	1214
647.2	1212
647.4	1195
647.6	1186
647.8	1186
648.0	1188
648.2	1185
648.4	1180
648.6	1171
648.8	1161
649.0	1155
649.2	1144
649.4	1135
649.6	1128
649.8	1125
650.0	1121
650.2	1118
650.4	1124
650.6	1124
650.8	1118
651.0	1110
651.2	1097
651.4	1086
651.6	1092
651.8	1088
652.0	1082
652.2	1080
652.4	1069
652.6	1066
652.8	1066
653.0	1068
653.2	1066
653.4	1063
653.6	1049
653.8	1047
654.0	1037
654.2	1028
654.4	1025
654.6	1023
654.8	1018
655.0	1017
655.2	1010
655.4	1003
655.6	996.4
655.8	990.0
656.0	985.6
656.2	981.9
656.4	977.0
656.6	982.8
656.8	972.7
657.0	957.7
657.2	953.1
657.4	956.6
657.6	959.1
657.8	961.7
658.0	954.4
658.2	942.8
658.4	936.0
658.6	929.1
658.8	921.5
659.0	908.9
659.2	901.7
659.4	896.4
659.6	893.9
659.8	891.3
660.0	889.0
660.2	886.2
660.4	882.4
660.6	879.1
660.8	875.3
661.0	880.2
661.2	878.3
661.4	874.0
661.6	865.6
661.8	854.1
662.0	844.1
662.2	845.7
662.4	846.8
662.6	841.7
662.8	833.5
663.0	829.3
663.2	825.5
663.4	823.9
663.6	819.9
663.8	813.9
664.0	807.6
664.2	811.5
664.4	805.6
664.6	806.7
664.8	796.9
665.0	791.1
665.2	787.5
665.4	783.2
665.6	771.8
665.8	766.2
666.0	756.0
666.2	753.2
666.4	750.9
666.6	750.2
666.8	748.0
667.0	741.9
667.2	739.6
667.4	743.4
667.6	742.3
667.8	741.0
668.0	730.8
668.2	723.4
668.4	710.7
668.6	707.1
668.8	706.6
669.0	706.3
669.2	700.2
669.4	705.7
669.6	702.7
669.8	696.8
670.0	695.4
670.2	688.5
670.4	679.8
670.6	678.9
670.8	678.2
671.0	674.1
671.2	675.2
671.4	670.5
671.6	666.5
671.8	658.2
672.0	655.3
672.2	649.9
672.4	644.9
672.6	638.6
672.8	634.6
673.0	631.8
673.2	639.9
673.4	638.9
673.6	634.1
673.8	624.2
674.0	619.4
674.2	617.4
674.4	617.1
674.6	614.2
674.8	609.7
675.0	603.6
675.2	603.1
675.4	600.2
675.6	595.5
675.8	592.2
676.0	585.8
676.2	577.0
676.4	573.4
676.6	575.2
676.8	572.7
677.0	570.8
677.2	563.8
677.4	559.3
677.6	558.9
677.8	560.9
678.0	561.5
678.2	557.2
678.4	552.5
678.6	546.5
678.8	542.1
679.0	540.2
679.2	541.8
679.4	538.0
679.6	531.5
679.8	518.6
680.0	512.1
680.2	512.9
680.4	514.5
680.6	517.7
680.8	509.5
681.0	500.7
681.2	501.0
681.4	503.3
681.6	501.9
681.8	502.7
682.0	490.2
682.2	485.4
682.4	485.6
682.6	484.3
682.8	485.7
683.0	488.8
683.2	484.9
683.4	482.6
683.6	477.8
683.8	469.4
684.0	466.2
684.2	461.2
684.4	457.4
684.6	454.4
684.8	456.0
685.0	458.8
685.2	456.5
685.4	449.6
685.6	445.7
685.8	441.5
686.0	439.3
686.2	439.9
686.4	435.3
686.6	427.5
686.8	427.4
687.0	426.2
687.2	422.6
687.4	419.2
687.6	419.4
687.8	415.9
688.0	416.8
688.2	421.4
688.4	416.9
688.6	412.2
688.8	411.8
689.0	408.4
689.2	402.6
689.4	400.7
689.6	390.4
689.8	387.4
690.0	389.9
690.2	392.9
690.4	394.4
690.6	390.3
690.8	386.0
691.0	384.7
691.2	381.6
691.4	382.9
691.6	386.1
691.8	382.6
692.0	377.5
692.2	373.2
692.4	363.5
692.6	363.0
692.8	363.2
693.0	360.6
693.2	360.5
693.4	359.3
693.6	358.0
693.8	359.6
694.0	355.0
694.2	351.3
694.4	353.0
694.6	347.2
694.8	344.2
695.0	340.2
695.2	336.3
695.4	335.7
695.6	337.7
695.8	332.7
696.0	328.2
696.2	324.7
696.4	324.4
696.6	326.1
696.8	329.7
697.0	327.5
697.2	325.9
697.4	325.2
697.6	323.9
697.8	322.7
698.0	320.7
698.2	317.7
698.4	314.2
698.6	308.9
698.8	305.3
699.0	302.9
699.2	302.3
699.4	304.2
699.6	312.5
699.8	309.9
700.0	305.3
700.2	300.9
700.4	295.4
700.6	294.3
700.8	299.3
701.0	296.6
701.2	293.5
701.4	290.0
701.6	289.8
701.8	292.0
702.0	291.0
702.2	289.2
702.4	284.7
702.6	280.7
702.8	282.2
703.0	282.8
703.2	281.7
703.4	280.6
703.6	279.2
703.8	279.0
704.0	274.8
704.2	271.2
704.4	267.8
704.6	264.9
704.8	266.5
705.0	268.1
705.2	268.1
705.4	264.2
705.6	260.8
705.8	259.8
706.0	258.2
706.2	257.2
706.4	253.7
706.6	246.6
706.8	244.3
707.0	247.6
707.2	249.7
707.4	254.0
707.6	253.0
707.8	249.4
708.0	246.0
708.2	243.5
708.4	240.7
708.6	240.3
708.8	237.8
709.0	235.4
709.2	237.1
709.4	235.6
709.6	234.7
709.8	233.7
710.0	231.9
710.2	232.7
710.4	233.0
710.6	228.7
710.8	224.5
711.0	222.9
711.2	225.3
711.4	228.4
711.6	225.1
711.8	221.1
712.0	217.1
712.2	212.4
712.4	210.5
712.6	211.8
712.8	210.3
713.0	210.3
713.2	210.1
713.4	206.2
713.6	206.3
713.8	208.4
714.0	208.4
714.2	204.3
714.4	198.9
714.6	193.7
714.8	191.9
715.0	194.2
715.2	197.3
715.4	195.4
715.6	193.9
715.8	191.5
716.0	189.1
716.2	189.1
716.4	189.0
716.6	187.3
716.8	187.2
717.0	187.1
717.2	189.6
717.4	187.5
717.6	184.1
717.8	181.1
718.0	179.3
718.2	175.4
718.4	179.2
718.6	177.1
718.8	175.9
719.0	173.7
719.2	172.5
719.4	171.7
719.6	175.8
719.8	172.3
720.0	171.4
720.2	166.4
720.4	161.9
720.6	161.6
720.8	161.7
721.0	159.1
721.2	161.3
721.4	160.0
721.6	160.6
721.8	160.1
722.0	158.7
722.2	156.7
722.4	154.9
722.6	156.5
722.8	156.9
723.0	152.8
723.2	152.7
723.4	151.4
723.6	147.4
723.8	149.3
724.0	149.0
724.2	146.3
724.4	149.2
724.6	150.4
724.8	148.0
725.0	146.4
725.2	145.8
725.4	142.1
725.6	141.7
725.8	141.3
726.0	139.2
726.2	139.1
726.4	138.5
726.6	138.0
726.8	136.3
727.0	133.3
727.2	131.3
727.4	130.4
727.6	131.8
727.8	135.1
728.0	135.6
728.2	132.5
728.4	131.8
728.6	128.9
728.8	126.0
729.0	123.5
729.2	122.8
729.4	122.3
729.6	125.1
729.8	127.3
730.0	124.4
730.2	120.3
730.4	119.1
730.6	118.8
730.8	117.6
731.0	118.2
731.2	118.3
731.4	116.6
731.6	115.1
731.8	113.8
732.0	113.3
732.2	113.9
732.4	115.8
732.6	115.2
732.8	113.2
733.0	112.9
733.2	110.9
733.4	109.0
733.6	106.5
733.8	105.3
734.0	104.9
734.2	106.6
734.4	104.3
734.6	103.9
734.8	103.2
735.0	103.3
735.2	106.0
735.4	108.8
735.6	107.1
735.8	104.8
736.0	101.2
736.2	98.53
736.4	98.49
736.6	97.75
736.8	94.84
737.0	94.70
737.2	93.24
737.4	93.50
737.6	95.17
737.8	98.00
738.0	97.64
738.2	97.98
738.4	94.92
738.6	92.45
738.8	92.16
739.0	93.72
739.2	93.56
739.4	93.14
739.6	91.95
739.8	89.96
740.0	87.92
740.2	88.63
740.4	89.04
740.6	86.65
740.8	85.18
741.0	82.21
741.2	80.80
741.4	81.74
741.6	84.02
741.8	82.63
742.0	81.38
742.2	79.03
742.4	78.75
742.6	78.45
742.8	81.75
743.0	83.80
743.2	81.25
743.4	79.19
743.6	78.53
743.8	75.87
744.0	76.98
744.2	79.05
744.4	78.62
744.6	80.10
744.8	79.45
745.0	76.62
745.2	75.40
745.4	74.02
745.6	74.13
745.8	73.92
746.0	71.09
746.2	71.07
746.4	70.07
746.6	68.85
746.8	68.83
747.0	68.67
747.2	69.87
747.4	71.49
747.6	70.81
747.8	69.27
748.0	66.39
748.2	63.56
748.4	65.03
748.6	65.72
748.8	67.54
749.0	69.08
749.2	68.45
749.4	64.71
749.6	62.19
749.8	58.13
750.0	58.45
750.2	58.88
750.4	60.93
750.6	62.10
750.8	63.22
751.0	61.06
751.2	61.87
751.4	61.02
751.6	61.79
751.8	63.15
752.0	62.71
752.2	59.38
752.4	58.75
752.6	56.89
752.8	55.43
753.0	56.63
753.2	57.24
753.4	56.59
753.6	58.88
753.8	59.41
754.0	58.72
754.2	57.89
754.4	56.47
754.6	55.18
754.8	54.69
755.0	54.62
755.2	54.52
755.4	54.20
755.6	52.20
755.8	52.49
756.0	52.91
756.2	53.73
756.4	53.85
756.6	53.60
756.8	51.38
757.0	50.25
757.2	50.11
757.4	50.22
757.6	49.77
757.8	49.41
758.0	48.57
758.2	48.80
758.4	49.32
758.6	48.84
758.8	47.14
759.0	47.11
759.2	45.89
759.4	47.43
759.6	46.35
759.8	47.24
760.0	46.64
760.2	47.92
760.4	47.52
760.6	47.87
760.8	44.51
761.0	44.71
761.2	44.29
761.4	45.30
761.6	44.91
761.8	43.52
762.0	42.51
762.2	43.13
762.4	44.45
762.6	46.09
762.8	44.63
763.0	42.40
763.2	42.62
763.4	42.78
763.6	43.29
763.8	42.42
764.0	39.11
764.2	38.62
764.4	39.76
764.6	40.87
764.8	41.48
765.0	40.64
765.2	39.48
765.4	40.58
765.6	41.29
765.8	41.07
766.0	39.76
766.2	39.40
766.4	38.82
766.6	37.62
766.8	36.46
767.0	35.21
767.2	37.11
767.4	39.28
767.6	39.17
767.8	37.52
768.0	35.51
768.2	34.09
768.4	35.28
768.6	35.61
768.8	35.86
769.0	35.20
769.2	34.13
769.4	33.44
769.6	34.04
769.8	33.73
770.0	34.86
770.2	34.81
770.4	33.46
770.6	31.63
770.8	31.68
771.0	31.06
771.2	32.40
771.4	33.76
771.6	33.70
771.8	33.16
772.0	34.14
772.2	35.23
772.4	34.37
772.6	32.33
772.8	30.05
773.0	28.42
773.2	29.32
773.4	30.91
773.6	30.32
773.8	30.32
774.0	31.32
774.2	31.11
774.4	31.59
774.6	30.69
774.8	28.66
775.0	28.36
775.2	28.67
775.4	28.58
775.6	29.00
775.8	28.48
776.0	28.39
776.2	28.29
776.4	28.68
776.6	28.95
776.8	29.55
777.0	29.69
777.2	30.14
777.4	29.22
777.6	28.73
777.8	26.98
778.0	27.00
778.2	27.76
778.4	28.36
778.6	28.26
778.8	27.64
779.0	25.80
779.2	25.80
779.4	25.31
779.6	24.89
779.8	25.19
780.0	25.84
780.2	26.61
780.4	26.99
780.6	26.56
780.8	25.33
781.0	24.88
781.2	24.45
781.4	24.33
781.6	24.71
781.8	26.23
782.0	25.61
782.2	25.67
782.4	24.65
782.6	25.41
782.8	26.24
783.0	25.71
783.2	24.84
783.4	24.10
783.6	22.48
783.8	23.24
784.0	23.43
784.2	22.66
784.4	22.94
784.6	22.82
784.8	23.14
785.0	22.99
785.2	23.22
785.4	23.17
785.6	22.24
785.8	21.77
786.0	22.00
786.2	21.64
786.4	21.04
786.6	20.90
786.8	20.46
787.0	20.85
787.2	21.20
787.4	22.23
787.6	22.09
787.8	21.73
788.0	21.95
788.2	21.63
788.4	22.32
788.6	22.46
788.8	22.42
789.0	21.74
789.2	22.38
789.4	21.82
789.6	22.71
789.8	22.11
790.0	22.10
790.2	21.45
790.4	21.77
790.6	21.23
790.8	21.56
791.0	21.70
791.2	20.64
791.4	20.23
791.6	20.07
791.8	20.52
792.0	20.45
792.2	20.53
792.4	19.69
792.6	20.30
792.8	19.74
793.0	20.73
793.2	20.14
793.4	19.97
793.6	19.93
793.8	19.51
794.0	17.95
794.2	18.26
794.4	17.69
794.6	18.02
794.8	19.28
795.0	19.80
795.2	20.12
795.4	20.45
795.6	19.58
795.8	20.00
796.0	20.41
796.2	20.75
796.4	21.18
796.6	20.83
796.8	19.64
797.0	19.58
797.2	18.87
797.4	18.90
797.6	18.95
797.8	18.90
798.0	18.17
798.2	17.14
798.4	17.37
798.6	18.19
798.8	19.16
799.0	19.67
799.2	19.23
799.4	17.59
799.6	16.73
799.8	16.22
800.0	16.20

