Sample:	'20211010A(EM)
File name:	R-CDs 1 100uM.FDS
Run date:	'10:41:00, 06/09/2023
Operator:	Administrator
Comment:	'

Instrument
Model:	F-4700 FL Spectrophotometer
Serial number:	2019-001
ROM Version:	5J24010 00

Instrument parameters
Measurement type:	Wavelength scan
Scan mode:	Emission
Data mode:	Fluorescence
EX WL:	520.0 nm
EM  Start WL:	540.0 nm
EM  End WL:	800.0 nm
Scan speed:	1200 nm/min
Delay:	0.0 s
EX Slit:	10.0 nm
EM Slit:	10.0 nm
PMT Voltage:	660 V
Response:	0.002 s
Corrected spectra:	Off
Shutter control:	On

Processing performed
Savitsky-Golay smoothed
Smoothing order:	3
Number of points:	7
Number of times:	1

Peak integration
Integration method:	Rectangular
Sensitivity:	1
Threshold:	1.000

Peaks
No.	Start(nm)	Apex(nm)	End(nm)	Height(Data)	Valley(nm)	Valley(Data)
1	540.0	614.0	615.6	1536	615.6	1525
2	615.6	618.6	620.8	1567	620.8	1527
3	620.8	621.6	622.0	1542	622.0	1519
4	622.0	623.0	627.6	1552	627.6	1479
5	627.6	629.4	632.6	1505	632.6	1413
6	632.6	634.0	700.4	1437	700.4	316.1
7	700.4	700.8	720.0	322.6	720.0	173.9
8	720.0	720.4	727.4	179.0	727.4	137.2
9	727.4	728.4	738.2	143.3	738.2	95.11
10	738.2	739.2	748.8	98.32	748.8	67.56
11	748.8	749.4	757.8	70.70	757.8	48.19
12	757.8	758.4	764.0	52.34	764.0	40.79
13	764.0	764.8	766.8	43.37	766.8	38.07
14	766.8	767.6	772.4	41.64	772.4	30.08
15	772.4	772.8	778.6	33.81	778.6	25.16
16	778.6	779.2	784.2	28.53	784.2	21.99
17	784.2	786.2	792.6	24.58	792.6	19.24
18	792.6	794.0	794.8	20.84	794.8	17.22
19	794.8	795.6	798.2	20.90	798.2	17.70

Data points
nm	Data
540.0	211.3
540.2	211.3
540.4	210.9
540.6	210.9
540.8	213.4
541.0	213.8
541.2	216.2
541.4	215.6
541.6	214.1
541.8	218.1
542.0	223.7
542.2	228.0
542.4	231.9
542.6	232.9
542.8	229.9
543.0	231.9
543.2	232.0
543.4	231.8
543.6	231.7
543.8	234.4
544.0	234.7
544.2	237.6
544.4	239.3
544.6	241.6
544.8	243.2
545.0	253.7
545.2	254.2
545.4	253.9
545.6	256.7
545.8	257.5
546.0	256.6
546.2	263.2
546.4	262.2
546.6	259.1
546.8	262.2
547.0	262.0
547.2	261.2
547.4	263.0
547.6	265.7
547.8	266.1
548.0	272.2
548.2	277.2
548.4	280.1
548.6	284.1
548.8	284.8
549.0	282.5
549.2	284.9
549.4	283.2
549.6	284.3
549.8	289.4
550.0	291.9
550.2	295.2
550.4	296.3
550.6	292.4
550.8	292.7
551.0	294.7
551.2	298.6
551.4	302.1
551.6	299.9
551.8	299.8
552.0	297.6
552.2	298.0
552.4	302.1
552.6	302.1
552.8	307.5
553.0	315.5
553.2	314.5
553.4	316.5
553.6	315.2
553.8	314.9
554.0	319.2
554.2	319.5
554.4	318.8
554.6	320.9
554.8	321.1
555.0	326.1
555.2	333.3
555.4	334.1
555.6	337.6
555.8	342.5
556.0	339.3
556.2	333.8
556.4	334.9
556.6	338.5
556.8	344.0
557.0	351.3
557.2	350.2
557.4	352.0
557.6	351.0
557.8	354.5
558.0	358.9
558.2	359.1
558.4	361.1
558.6	365.7
558.8	362.7
559.0	359.4
559.2	362.7
559.4	367.9
559.6	372.9
559.8	372.5
560.0	369.8
560.2	366.0
560.4	370.9
560.6	379.1
560.8	386.9
561.0	389.1
561.2	392.5
561.4	393.6
561.6	395.1
561.8	394.6
562.0	395.7
562.2	395.6
562.4	398.9
562.6	403.2
562.8	406.0
563.0	409.4
563.2	410.0
563.4	414.1
563.6	414.7
563.8	417.3
564.0	416.7
564.2	417.9
564.4	416.8
564.6	424.1
564.8	426.0
565.0	430.2
565.2	434.1
565.4	445.9
565.6	452.2
565.8	457.4
566.0	458.3
566.2	458.2
566.4	453.3
566.6	457.5
566.8	457.2
567.0	461.2
567.2	462.6
567.4	472.1
567.6	472.4
567.8	478.3
568.0	480.2
568.2	482.0
568.4	481.0
568.6	482.6
568.8	480.2
569.0	486.3
569.2	491.7
569.4	497.7
569.6	505.1
569.8	503.7
570.0	508.5
570.2	518.1
570.4	521.4
570.6	524.3
570.8	526.0
571.0	529.9
571.2	536.5
571.4	546.9
571.6	548.8
571.8	545.3
572.0	548.7
572.2	555.6
572.4	558.4
572.6	561.4
572.8	561.6
573.0	563.3
573.2	570.5
573.4	575.5
573.6	582.1
573.8	584.7
574.0	593.4
574.2	600.5
574.4	603.9
574.6	598.6
574.8	601.4
575.0	599.9
575.2	606.4
575.4	612.4
575.6	622.3
575.8	626.9
576.0	639.8
576.2	641.6
576.4	643.9
576.6	645.0
576.8	647.1
577.0	648.8
577.2	653.2
577.4	654.5
577.6	658.6
577.8	662.7
578.0	670.5
578.2	678.6
578.4	687.8
578.6	694.9
578.8	701.2
579.0	710.2
579.2	720.2
579.4	721.4
579.6	723.6
579.8	723.6
580.0	729.3
580.2	733.7
580.4	744.0
580.6	752.2
580.8	760.5
581.0	762.7
581.2	772.5
581.4	772.9
581.6	778.9
581.8	786.6
582.0	792.7
582.2	796.4
582.4	804.6
582.6	808.2
582.8	809.1
583.0	807.0
583.2	811.0
583.4	823.3
583.6	836.0
583.8	843.9
584.0	843.5
584.2	841.8
584.4	841.5
584.6	849.1
584.8	855.9
585.0	864.3
585.2	862.8
585.4	868.1
585.6	870.1
585.8	882.7
586.0	891.9
586.2	901.9
586.4	902.7
586.6	910.4
586.8	919.7
587.0	930.1
587.2	935.8
587.4	940.4
587.6	937.7
587.8	942.1
588.0	944.9
588.2	948.5
588.4	953.8
588.6	961.1
588.8	966.2
589.0	976.5
589.2	986.0
589.4	1000
589.6	1007
589.8	1009
590.0	1018
590.2	1026
590.4	1038
590.6	1047
590.8	1051
591.0	1059
591.2	1068
591.4	1069
591.6	1062
591.8	1055
592.0	1056
592.2	1068
592.4	1084
592.6	1090
592.8	1091
593.0	1094
593.2	1098
593.4	1110
593.6	1124
593.8	1127
594.0	1137
594.2	1140
594.4	1142
594.6	1145
594.8	1145
595.0	1145
595.2	1152
595.4	1162
595.6	1167
595.8	1170
596.0	1174
596.2	1181
596.4	1187
596.6	1199
596.8	1197
597.0	1199
597.2	1204
597.4	1211
597.6	1218
597.8	1234
598.0	1234
598.2	1233
598.4	1231
598.6	1236
598.8	1243
599.0	1268
599.2	1278
599.4	1281
599.6	1275
599.8	1278
600.0	1278
600.2	1279
600.4	1289
600.6	1297
600.8	1304
601.0	1318
601.2	1322
601.4	1319
601.6	1327
601.8	1330
602.0	1331
602.2	1342
602.4	1348
602.6	1349
602.8	1351
603.0	1350
603.2	1353
603.4	1359
603.6	1371
603.8	1376
604.0	1380
604.2	1382
604.4	1389
604.6	1387
604.8	1391
605.0	1404
605.2	1404
605.4	1400
605.6	1399
605.8	1399
606.0	1397
606.2	1407
606.4	1409
606.6	1410
606.8	1416
607.0	1416
607.2	1422
607.4	1435
607.6	1446
607.8	1457
608.0	1468
608.2	1458
608.4	1449
608.6	1449
608.8	1446
609.0	1452
609.2	1468
609.4	1472
609.6	1467
609.8	1472
610.0	1474
610.2	1470
610.4	1477
610.6	1484
610.8	1485
611.0	1489
611.2	1491
611.4	1483
611.6	1489
611.8	1494
612.0	1502
612.2	1512
612.4	1518
612.6	1523
612.8	1527
613.0	1519
613.2	1521
613.4	1517
613.6	1519
613.8	1530
614.0	1536
614.2	1536
614.4	1531
614.6	1530
614.8	1527
615.0	1527
615.2	1528
615.4	1526
615.6	1525
615.8	1537
616.0	1545
616.2	1552
616.4	1545
616.6	1541
616.8	1545
617.0	1541
617.2	1546
617.4	1548
617.6	1533
617.8	1543
618.0	1548
618.2	1553
618.4	1562
618.6	1567
618.8	1559
619.0	1558
619.2	1549
619.4	1544
619.6	1542
619.8	1542
620.0	1539
620.2	1530
620.4	1533
620.6	1533
620.8	1527
621.0	1531
621.2	1539
621.4	1537
621.6	1542
621.8	1533
622.0	1519
622.2	1523
622.4	1535
622.6	1540
622.8	1549
623.0	1552
623.2	1550
623.4	1549
623.6	1547
623.8	1542
624.0	1538
624.2	1530
624.4	1531
624.6	1524
624.8	1527
625.0	1529
625.2	1523
625.4	1520
625.6	1523
625.8	1516
626.0	1520
626.2	1516
626.4	1511
626.6	1518
626.8	1512
627.0	1510
627.2	1491
627.4	1485
627.6	1479
627.8	1486
628.0	1495
628.2	1503
628.4	1491
628.6	1493
628.8	1494
629.0	1498
629.2	1502
629.4	1505
629.6	1492
629.8	1477
630.0	1471
630.2	1469
630.4	1459
630.6	1468
630.8	1459
631.0	1455
631.2	1453
631.4	1455
631.6	1456
631.8	1458
632.0	1451
632.2	1438
632.4	1425
632.6	1413
632.8	1421
633.0	1416
633.2	1420
633.4	1420
633.6	1425
633.8	1432
634.0	1437
634.2	1426
634.4	1407
634.6	1401
634.8	1393
635.0	1388
635.2	1386
635.4	1388
635.6	1379
635.8	1382
636.0	1378
636.2	1374
636.4	1364
636.6	1369
636.8	1363
637.0	1360
637.2	1359
637.4	1368
637.6	1352
637.8	1348
638.0	1343
638.2	1343
638.4	1346
638.6	1358
638.8	1347
639.0	1339
639.2	1327
639.4	1322
639.6	1319
639.8	1319
640.0	1311
640.2	1311
640.4	1310
640.6	1310
640.8	1304
641.0	1297
641.2	1288
641.4	1283
641.6	1286
641.8	1284
642.0	1275
642.2	1262
642.4	1264
642.6	1266
642.8	1269
643.0	1266
643.2	1251
643.4	1238
643.6	1240
643.8	1239
644.0	1241
644.2	1238
644.4	1223
644.6	1221
644.8	1223
645.0	1221
645.2	1215
645.4	1210
645.6	1200
645.8	1200
646.0	1202
646.2	1203
646.4	1192
646.6	1182
646.8	1179
647.0	1177
647.2	1167
647.4	1167
647.6	1162
647.8	1165
648.0	1165
648.2	1160
648.4	1144
648.6	1138
648.8	1127
649.0	1126
649.2	1120
649.4	1125
649.6	1128
649.8	1131
650.0	1127
650.2	1115
650.4	1104
650.6	1100
650.8	1097
651.0	1094
651.2	1095
651.4	1089
651.6	1085
651.8	1079
652.0	1073
652.2	1060
652.4	1050
652.6	1048
652.8	1050
653.0	1053
653.2	1060
653.4	1048
653.6	1037
653.8	1034
654.0	1033
654.2	1032
654.4	1032
654.6	1017
654.8	1006
655.0	998.6
655.2	997.2
655.4	996.9
655.6	991.1
655.8	989.1
656.0	986.9
656.2	991.3
656.4	993.5
656.6	982.7
656.8	972.7
657.0	962.7
657.2	953.0
657.4	957.1
657.6	959.2
657.8	953.3
658.0	946.8
658.2	938.2
658.4	935.9
658.6	937.8
658.8	939.9
659.0	937.3
659.2	932.2
659.4	924.4
659.6	916.9
659.8	904.2
660.0	900.0
660.2	894.3
660.4	892.2
660.6	887.4
660.8	882.2
661.0	877.5
661.2	885.7
661.4	885.1
661.6	873.4
661.8	859.9
662.0	852.3
662.2	850.4
662.4	856.1
662.6	850.3
662.8	845.5
663.0	835.3
663.2	833.3
663.4	835.3
663.6	832.7
663.8	831.4
664.0	834.7
664.2	832.5
664.4	825.1
664.6	816.2
664.8	808.3
665.0	802.6
665.2	801.0
665.4	798.5
665.6	790.6
665.8	788.3
666.0	788.8
666.2	782.5
666.4	776.2
666.6	776.4
666.8	772.3
667.0	777.7
667.2	771.7
667.4	759.1
667.6	748.5
667.8	751.0
668.0	752.0
668.2	753.8
668.4	746.0
668.6	734.9
668.8	727.1
669.0	728.6
669.2	732.9
669.4	731.6
669.6	725.2
669.8	713.2
670.0	703.8
670.2	697.9
670.4	698.6
670.6	702.7
670.8	705.1
671.0	700.4
671.2	695.5
671.4	689.9
671.6	684.4
671.8	681.4
672.0	677.8
672.2	674.9
672.4	674.3
672.6	671.4
672.8	663.5
673.0	662.3
673.2	653.4
673.4	646.6
673.6	649.7
673.8	640.9
674.0	637.8
674.2	644.2
674.4	639.9
674.6	637.0
674.8	636.7
675.0	624.2
675.2	619.4
675.4	619.4
675.6	619.0
675.8	623.3
676.0	621.1
676.2	609.6
676.4	602.6
676.6	598.1
676.8	595.4
677.0	596.1
677.2	597.3
677.4	587.0
677.6	586.7
677.8	585.2
678.0	582.8
678.2	578.8
678.4	578.6
678.6	567.4
678.8	568.3
679.0	565.5
679.2	563.3
679.4	559.8
679.6	560.3
679.8	553.7
680.0	553.1
680.2	550.6
680.4	546.4
680.6	544.4
680.8	541.0
681.0	533.5
681.2	525.8
681.4	519.3
681.6	515.7
681.8	514.5
682.0	517.1
682.2	520.2
682.4	520.5
682.6	516.2
682.8	514.7
683.0	508.9
683.2	506.1
683.4	504.2
683.6	509.9
683.8	505.0
684.0	501.9
684.2	490.1
684.4	479.6
684.6	475.1
684.8	483.2
685.0	481.6
685.2	478.0
685.4	470.0
685.6	464.5
685.8	462.8
686.0	464.1
686.2	460.2
686.4	458.6
686.6	459.0
686.8	458.6
687.0	458.7
687.2	454.4
687.4	449.3
687.6	444.7
687.8	439.4
688.0	435.7
688.2	430.5
688.4	425.7
688.6	430.1
688.8	429.5
689.0	429.6
689.2	430.6
689.4	427.6
689.6	423.0
689.8	420.1
690.0	416.5
690.2	410.2
690.4	406.0
690.6	405.1
690.8	402.6
691.0	400.2
691.2	403.6
691.4	407.1
691.6	404.5
691.8	404.0
692.0	402.9
692.2	400.5
692.4	394.3
692.6	393.3
692.8	382.5
693.0	378.1
693.2	375.3
693.4	381.5
693.6	379.3
693.8	378.0
694.0	372.7
694.2	371.2
694.4	366.3
694.6	367.4
694.8	364.0
695.0	359.7
695.2	361.0
695.4	362.7
695.6	365.6
695.8	361.4
696.0	360.2
696.2	350.3
696.4	347.5
696.6	344.2
696.8	347.3
697.0	343.7
697.2	344.2
697.4	340.5
697.6	339.6
697.8	337.5
698.0	338.2
698.2	339.4
698.4	336.0
698.6	332.3
698.8	327.3
699.0	322.0
699.2	317.6
699.4	318.6
699.6	319.4
699.8	316.4
700.0	318.0
700.2	318.3
700.4	316.1
700.6	320.1
700.8	322.6
701.0	321.0
701.2	315.6
701.4	312.7
701.6	307.3
701.8	306.0
702.0	306.4
702.2	305.3
702.4	297.4
702.6	295.1
702.8	294.9
703.0	292.0
703.2	298.1
703.4	297.4
703.6	297.5
703.8	293.7
704.0	292.3
704.2	286.4
704.4	286.6
704.6	287.4
704.8	287.4
705.0	286.0
705.2	280.4
705.4	277.4
705.6	274.9
705.8	277.5
706.0	274.9
706.2	279.4
706.4	275.3
706.6	275.1
706.8	274.1
707.0	270.9
707.2	266.8
707.4	267.9
707.6	264.8
707.8	265.1
708.0	264.5
708.2	259.2
708.4	258.3
708.6	259.1
708.8	258.0
709.0	256.3
709.2	255.7
709.4	250.6
709.6	248.8
709.8	250.7
710.0	249.6
710.2	246.2
710.4	244.8
710.6	240.1
710.8	236.3
711.0	235.1
711.2	236.4
711.4	233.7
711.6	231.9
711.8	231.5
712.0	229.7
712.2	229.3
712.4	230.8
712.6	228.3
712.8	226.2
713.0	223.0
713.2	226.0
713.4	230.3
713.6	226.3
713.8	223.7
714.0	221.1
714.2	217.0
714.4	215.9
714.6	218.8
714.8	212.0
715.0	212.2
715.2	212.8
715.4	212.1
715.6	210.8
715.8	213.2
716.0	208.7
716.2	205.7
716.4	206.2
716.6	204.6
716.8	201.1
717.0	201.1
717.2	201.2
717.4	200.6
717.6	199.6
717.8	197.1
718.0	191.7
718.2	190.2
718.4	188.6
718.6	187.4
718.8	182.6
719.0	183.0
719.2	182.5
719.4	179.4
719.6	176.5
719.8	175.0
720.0	173.9
720.2	177.7
720.4	179.0
720.6	177.9
720.8	177.7
721.0	177.5
721.2	175.0
721.4	170.8
721.6	167.2
721.8	166.0
722.0	163.7
722.2	164.8
722.4	162.9
722.6	163.8
722.8	165.1
723.0	167.0
723.2	163.3
723.4	162.7
723.6	155.8
723.8	157.3
724.0	156.1
724.2	156.8
724.4	155.6
724.6	156.9
724.8	153.8
725.0	154.6
725.2	154.4
725.4	152.0
725.6	148.0
725.8	145.4
726.0	146.1
726.2	145.7
726.4	148.3
726.6	146.4
726.8	143.5
727.0	139.7
727.2	140.3
727.4	137.2
727.6	137.7
727.8	140.9
728.0	141.2
728.2	141.3
728.4	143.3
728.6	138.7
728.8	135.8
729.0	136.4
729.2	136.4
729.4	136.1
729.6	136.6
729.8	133.9
730.0	130.7
730.2	126.4
730.4	128.7
730.6	129.2
730.8	131.5
731.0	128.9
731.2	123.8
731.4	120.5
731.6	120.7
731.8	121.6
732.0	124.0
732.2	121.4
732.4	119.1
732.6	118.5
732.8	119.1
733.0	119.7
733.2	119.9
733.4	119.7
733.6	117.9
733.8	116.6
734.0	115.5
734.2	114.0
734.4	112.6
734.6	112.0
734.8	112.5
735.0	110.9
735.2	109.3
735.4	107.7
735.6	106.8
735.8	106.5
736.0	108.2
736.2	106.1
736.4	106.6
736.6	106.1
736.8	106.2
737.0	106.1
737.2	106.7
737.4	103.1
737.6	99.74
737.8	96.50
738.0	95.23
738.2	95.11
738.4	95.35
738.6	96.05
738.8	97.89
739.0	98.30
739.2	98.32
739.4	95.13
739.6	90.97
739.8	90.38
740.0	93.92
740.2	92.85
740.4	92.85
740.6	91.21
740.8	90.56
741.0	90.12
741.2	93.31
741.4	91.35
741.6	90.94
741.8	88.71
742.0	87.53
742.2	85.19
742.4	85.76
742.6	85.81
742.8	86.11
743.0	87.35
743.2	88.20
743.4	86.26
743.6	84.53
743.8	81.89
744.0	80.80
744.2	81.40
744.4	81.60
744.6	80.28
744.8	78.17
745.0	75.32
745.2	75.97
745.4	78.71
745.6	79.53
745.8	79.02
746.0	77.99
746.2	75.00
746.4	74.18
746.6	75.52
746.8	73.89
747.0	72.63
747.2	71.51
747.4	69.88
747.6	69.42
747.8	70.19
748.0	69.88
748.2	70.32
748.4	68.65
748.6	68.71
748.8	67.56
749.0	69.51
749.2	70.23
749.4	70.70
749.6	69.82
749.8	68.02
750.0	64.93
750.2	65.53
750.4	65.67
750.6	67.16
750.8	67.88
751.0	67.59
751.2	65.90
751.4	65.05
751.6	63.58
751.8	64.51
752.0	64.62
752.2	64.01
752.4	63.16
752.6	62.14
752.8	61.47
753.0	62.35
753.2	61.71
753.4	60.29
753.6	61.50
753.8	61.00
754.0	60.79
754.2	61.57
754.4	58.73
754.6	57.29
754.8	57.60
755.0	57.19
755.2	57.02
755.4	57.06
755.6	54.62
755.8	55.74
756.0	56.02
756.2	56.14
756.4	54.80
756.6	53.48
756.8	52.31
757.0	53.11
757.2	52.11
757.4	50.80
757.6	48.75
757.8	48.19
758.0	49.67
758.2	50.72
758.4	52.34
758.6	52.26
758.8	52.22
759.0	52.22
759.2	51.78
759.4	49.82
759.6	48.49
759.8	46.27
760.0	45.75
760.2	47.19
760.4	47.89
760.6	47.61
760.8	46.15
761.0	45.04
761.2	44.57
761.4	44.93
761.6	45.75
761.8	45.82
762.0	44.79
762.2	43.82
762.4	42.51
762.6	43.11
762.8	43.15
763.0	44.81
763.2	44.94
763.4	43.76
763.6	42.18
763.8	41.61
764.0	40.79
764.2	43.05
764.4	42.92
764.6	42.40
764.8	43.37
765.0	42.00
765.2	42.51
765.4	42.27
765.6	40.62
765.8	39.04
766.0	39.51
766.2	38.75
766.4	39.30
766.6	38.17
766.8	38.07
767.0	38.16
767.2	39.09
767.4	40.83
767.6	41.64
767.8	40.09
768.0	38.00
768.2	36.59
768.4	36.09
768.6	36.45
768.8	36.22
769.0	36.59
769.2	36.23
769.4	35.76
769.6	35.28
769.8	33.24
770.0	32.64
770.2	34.09
770.4	33.01
770.6	32.64
770.8	32.18
771.0	30.96
771.2	31.72
771.4	33.46
771.6	33.65
771.8	32.81
772.0	31.64
772.2	30.70
772.4	30.08
772.6	31.44
772.8	33.81
773.0	33.48
773.2	32.05
773.4	31.79
773.6	31.36
773.8	31.59
774.0	32.38
774.2	32.44
774.4	31.48
774.6	30.54
774.8	29.49
775.0	29.30
775.2	29.18
775.4	28.68
775.6	29.03
775.8	28.70
776.0	27.74
776.2	29.29
776.4	28.39
776.6	27.74
776.8	27.21
777.0	26.67
777.2	26.36
777.4	27.64
777.6	26.88
777.8	27.39
778.0	27.23
778.2	26.28
778.4	25.44
778.6	25.16
778.8	25.45
779.0	26.88
779.2	28.53
779.4	28.21
779.6	27.11
779.8	26.35
780.0	26.15
780.2	26.12
780.4	25.60
780.6	25.63
780.8	25.49
781.0	25.61
781.2	26.15
781.4	26.12
781.6	26.17
781.8	25.91
782.0	26.09
782.2	26.08
782.4	25.68
782.6	24.97
782.8	25.01
783.0	24.19
783.2	25.50
783.4	25.36
783.6	24.47
783.8	23.26
784.0	22.67
784.2	21.99
784.4	23.28
784.6	22.92
784.8	23.37
785.0	23.52
785.2	23.50
785.4	22.03
785.6	21.81
785.8	22.76
786.0	24.22
786.2	24.58
786.4	23.41
786.6	22.46
786.8	21.69
787.0	22.40
787.2	22.55
787.4	23.55
787.6	23.08
787.8	23.85
788.0	22.96
788.2	22.31
788.4	21.50
788.6	21.93
788.8	22.50
789.0	22.12
789.2	21.04
789.4	22.16
789.6	22.13
789.8	22.01
790.0	22.12
790.2	21.57
790.4	21.43
790.6	22.44
790.8	21.48
791.0	21.44
791.2	20.67
791.4	20.47
791.6	20.06
791.8	20.02
792.0	19.45
792.2	19.74
792.4	19.57
792.6	19.24
792.8	19.47
793.0	19.31
793.2	19.83
793.4	19.41
793.6	19.63
793.8	19.69
794.0	20.84
794.2	20.50
794.4	20.11
794.6	18.08
794.8	17.22
795.0	17.95
795.2	19.99
795.4	20.52
795.6	20.90
795.8	19.69
796.0	19.39
796.2	18.83
796.4	19.24
796.6	18.93
796.8	19.37
797.0	19.21
797.2	20.18
797.4	19.23
797.6	18.85
797.8	18.04
798.0	18.00
798.2	17.70
798.4	18.88
798.6	19.66
798.8	20.17
799.0	19.55
799.2	18.85
799.4	17.39
799.6	17.01
799.8	17.96
800.0	20.76

