Sample:	'20211010A(EM)
File name:	R-CDs 9 900uM.FDS
Run date:	'15:29:49, 06/09/2023
Operator:	Administrator
Comment:	'

Instrument
Model:	F-4700 FL Spectrophotometer
Serial number:	2019-001
ROM Version:	5J24010 00

Instrument parameters
Measurement type:	Wavelength scan
Scan mode:	Emission
Data mode:	Fluorescence
EX WL:	520.0 nm
EM  Start WL:	540.0 nm
EM  End WL:	800.0 nm
Scan speed:	1200 nm/min
Delay:	0.0 s
EX Slit:	10.0 nm
EM Slit:	10.0 nm
PMT Voltage:	650 V
Response:	0.002 s
Corrected spectra:	Off
Shutter control:	On

Processing performed
Savitsky-Golay smoothed
Smoothing order:	3
Number of points:	7
Number of times:	1

Peak integration
Integration method:	Rectangular
Sensitivity:	1
Threshold:	1.000

Peaks
No.	Start(nm)	Apex(nm)	End(nm)	Height(Data)	Valley(nm)	Valley(Data)
1	540.0	587.4	588.0	2107	588.0	2082
2	588.0	590.4	591.0	2150	591.0	2129
3	591.0	596.4	597.0	2212	597.0	2185
4	597.0	601.0	601.8	2246	601.8	2209
5	601.8	602.2	603.6	2241	603.6	2216
6	603.6	604.4	625.0	2230	625.0	1888
7	625.0	625.4	745.0	1905	745.0	79.34
8	745.0	745.4	749.6	83.04	749.6	66.94
9	749.6	751.0	752.6	70.43	752.6	62.55
10	752.6	753.4	755.8	64.96	755.8	54.44
11	755.8	756.4	757.4	58.87	757.4	50.53
12	757.4	758.2	759.0	53.97	759.0	49.77
13	759.0	759.8	763.2	53.45	763.2	45.74
14	763.2	763.4	765.2	47.44	765.2	40.70
15	765.2	765.8	774.2	43.36	774.2	29.47
16	774.2	775.4	776.8	33.05	776.8	29.63
17	776.8	777.8	781.2	31.05	781.2	25.41
18	781.2	781.8	783.8	29.02	783.8	23.40
19	783.8	784.6	785.8	24.79	785.8	23.20
20	785.8	787.2	789.4	24.71	789.4	20.96
21	789.4	791.0	794.4	23.28	794.4	18.18
22	794.4	795.6	797.6	22.03	797.6	18.40
23	797.6	798.4	800.0	20.55	800.0	19.36

Data points
nm	Data
540.0	235.8
540.2	229.8
540.4	232.4
540.6	239.6
540.8	246.3
541.0	249.7
541.2	245.7
541.4	245.0
541.6	246.1
541.8	250.4
542.0	254.8
542.2	259.4
542.4	257.4
542.6	258.5
542.8	261.8
543.0	267.2
543.2	267.2
543.4	268.5
543.6	267.4
543.8	265.5
544.0	266.1
544.2	270.3
544.4	272.3
544.6	273.1
544.8	272.8
545.0	275.9
545.2	279.6
545.4	284.8
545.6	289.0
545.8	288.4
546.0	288.9
546.2	292.8
546.4	294.9
546.6	298.6
546.8	300.9
547.0	304.9
547.2	306.9
547.4	309.6
547.6	309.3
547.8	310.0
548.0	313.8
548.2	320.1
548.4	321.8
548.6	322.5
548.8	329.2
549.0	332.9
549.2	338.2
549.4	342.8
549.6	343.5
549.8	342.3
550.0	343.6
550.2	344.2
550.4	347.2
550.6	350.2
550.8	357.0
551.0	364.6
551.2	366.0
551.4	367.7
551.6	369.4
551.8	367.4
552.0	373.4
552.2	378.2
552.4	381.3
552.6	386.5
552.8	394.6
553.0	403.0
553.2	407.8
553.4	412.7
553.6	413.5
553.8	416.3
554.0	421.2
554.2	428.6
554.4	429.0
554.6	433.5
554.8	436.3
555.0	442.6
555.2	447.9
555.4	457.8
555.6	462.0
555.8	468.9
556.0	473.4
556.2	482.2
556.4	486.9
556.6	496.4
556.8	498.4
557.0	501.5
557.2	504.6
557.4	511.6
557.6	516.6
557.8	528.0
558.0	536.2
558.2	542.8
558.4	548.7
558.6	553.6
558.8	557.0
559.0	564.1
559.2	575.0
559.4	587.5
559.6	596.2
559.8	606.5
560.0	617.0
560.2	623.2
560.4	626.5
560.6	634.0
560.8	642.0
561.0	657.3
561.2	668.2
561.4	676.1
561.6	683.0
561.8	690.8
562.0	700.8
562.2	718.3
562.4	728.1
562.6	737.1
562.8	749.0
563.0	751.7
563.2	759.0
563.4	769.3
563.6	777.1
563.8	794.6
564.0	807.1
564.2	812.5
564.4	822.3
564.6	832.4
564.8	844.0
565.0	866.4
565.2	879.8
565.4	891.1
565.6	900.6
565.8	915.5
566.0	928.2
566.2	936.6
566.4	948.5
566.6	962.3
566.8	978.3
567.0	998.9
567.2	1010
567.4	1010
567.6	1018
567.8	1028
568.0	1043
568.2	1062
568.4	1078
568.6	1094
568.8	1107
569.0	1122
569.2	1134
569.4	1151
569.6	1171
569.8	1190
570.0	1200
570.2	1212
570.4	1223
570.6	1240
570.8	1254
571.0	1271
571.2	1284
571.4	1294
571.6	1312
571.8	1328
572.0	1343
572.2	1362
572.4	1378
572.6	1397
572.8	1417
573.0	1425
573.2	1438
573.4	1444
573.6	1453
573.8	1472
574.0	1491
574.2	1506
574.4	1532
574.6	1548
574.8	1565
575.0	1577
575.2	1583
575.4	1589
575.6	1605
575.8	1615
576.0	1627
576.2	1646
576.4	1651
576.6	1667
576.8	1688
577.0	1698
577.2	1705
577.4	1720
577.6	1729
577.8	1745
578.0	1765
578.2	1770
578.4	1781
578.6	1782
578.8	1793
579.0	1802
579.2	1819
579.4	1833
579.6	1842
579.8	1838
580.0	1843
580.2	1850
580.4	1860
580.6	1879
580.8	1885
581.0	1890
581.2	1900
581.4	1905
581.6	1932
581.8	1946
582.0	1957
582.2	1966
582.4	1969
582.6	1968
582.8	1985
583.0	1982
583.2	1985
583.4	1986
583.6	1998
583.8	2004
584.0	2012
584.2	2015
584.4	2019
584.6	2014
584.8	2021
585.0	2025
585.2	2023
585.4	2039
585.6	2045
585.8	2054
586.0	2055
586.2	2062
586.4	2062
586.6	2082
586.8	2089
587.0	2102
587.2	2104
587.4	2107
587.6	2094
587.8	2089
588.0	2082
588.2	2085
588.4	2099
588.6	2116
588.8	2119
589.0	2125
589.2	2132
589.4	2131
589.6	2136
589.8	2141
590.0	2145
590.2	2147
590.4	2150
590.6	2143
590.8	2132
591.0	2129
591.2	2137
591.4	2145
591.6	2157
591.8	2161
592.0	2151
592.2	2141
592.4	2141
592.6	2149
592.8	2158
593.0	2164
593.2	2178
593.4	2176
593.6	2183
593.8	2192
594.0	2187
594.2	2178
594.4	2181
594.6	2182
594.8	2188
595.0	2196
595.2	2204
595.4	2191
595.6	2189
595.8	2197
596.0	2198
596.2	2207
596.4	2212
596.6	2199
596.8	2191
597.0	2185
597.2	2191
597.4	2205
597.6	2207
597.8	2205
598.0	2205
598.2	2199
598.4	2210
598.6	2216
598.8	2224
599.0	2224
599.2	2232
599.4	2216
599.6	2215
599.8	2214
600.0	2223
600.2	2228
600.4	2243
600.6	2238
600.8	2239
601.0	2246
601.2	2230
601.4	2211
601.6	2213
601.8	2209
602.0	2217
602.2	2241
602.4	2234
602.6	2230
602.8	2230
603.0	2220
603.2	2222
603.4	2220
603.6	2216
603.8	2223
604.0	2225
604.2	2226
604.4	2230
604.6	2223
604.8	2225
605.0	2221
605.2	2221
605.4	2220
605.6	2220
605.8	2219
606.0	2214
606.2	2208
606.4	2205
606.6	2209
606.8	2206
607.0	2205
607.2	2199
607.4	2193
607.6	2193
607.8	2202
608.0	2197
608.2	2188
608.4	2178
608.6	2170
608.8	2163
609.0	2168
609.2	2174
609.4	2170
609.6	2164
609.8	2164
610.0	2165
610.2	2166
610.4	2165
610.6	2157
610.8	2137
611.0	2138
611.2	2138
611.4	2139
611.6	2132
611.8	2135
612.0	2138
612.2	2145
612.4	2136
612.6	2128
612.8	2111
613.0	2115
613.2	2124
613.4	2130
613.6	2127
613.8	2119
614.0	2106
614.2	2108
614.4	2113
614.6	2122
614.8	2117
615.0	2107
615.2	2088
615.4	2086
615.6	2090
615.8	2103
616.0	2098
616.2	2092
616.4	2078
616.6	2074
616.8	2069
617.0	2069
617.2	2069
617.4	2066
617.6	2057
617.8	2054
618.0	2047
618.2	2045
618.4	2057
618.6	2047
618.8	2042
619.0	2036
619.2	2024
619.4	2022
619.6	2028
619.8	2027
620.0	2027
620.2	2019
620.4	2008
620.6	1997
620.8	1996
621.0	1994
621.2	1994
621.4	1996
621.6	1996
621.8	1985
622.0	1983
622.2	1977
622.4	1980
622.6	1976
622.8	1979
623.0	1972
623.2	1961
623.4	1944
623.6	1932
623.8	1912
624.0	1922
624.2	1921
624.4	1907
624.6	1897
624.8	1893
625.0	1888
625.2	1898
625.4	1905
625.6	1900
625.8	1900
626.0	1895
626.2	1893
626.4	1885
626.6	1890
626.8	1878
627.0	1874
627.2	1866
627.4	1854
627.6	1840
627.8	1836
628.0	1833
628.2	1841
628.4	1847
628.6	1836
628.8	1823
629.0	1809
629.2	1809
629.4	1804
629.6	1800
629.8	1796
630.0	1797
630.2	1795
630.4	1800
630.6	1799
630.8	1783
631.0	1772
631.2	1759
631.4	1753
631.6	1759
631.8	1766
632.0	1758
632.2	1751
632.4	1738
632.6	1734
632.8	1732
633.0	1719
633.2	1715
633.4	1716
633.6	1722
633.8	1727
634.0	1717
634.2	1699
634.4	1674
634.6	1657
634.8	1640
635.0	1648
635.2	1654
635.4	1663
635.6	1658
635.8	1650
636.0	1626
636.2	1627
636.4	1633
636.6	1626
636.8	1625
637.0	1623
637.2	1608
637.4	1607
637.6	1610
637.8	1594
638.0	1585
638.2	1582
638.4	1567
638.6	1558
638.8	1553
639.0	1549
639.2	1542
639.4	1543
639.6	1538
639.8	1525
640.0	1521
640.2	1522
640.4	1514
640.6	1509
640.8	1500
641.0	1496
641.2	1502
641.4	1503
641.6	1498
641.8	1485
642.0	1474
642.2	1471
642.4	1461
642.6	1444
642.8	1438
643.0	1427
643.2	1432
643.4	1438
643.6	1425
643.8	1421
644.0	1421
644.2	1413
644.4	1409
644.6	1402
644.8	1391
645.0	1396
645.2	1402
645.4	1396
645.6	1392
645.8	1384
646.0	1369
646.2	1360
646.4	1359
646.6	1345
646.8	1342
647.0	1332
647.2	1318
647.4	1314
647.6	1312
647.8	1308
648.0	1308
648.2	1295
648.4	1281
648.6	1280
648.8	1282
649.0	1288
649.2	1289
649.4	1277
649.6	1264
649.8	1260
650.0	1250
650.2	1244
650.4	1237
650.6	1237
650.8	1235
651.0	1232
651.2	1225
651.4	1216
651.6	1200
651.8	1195
652.0	1189
652.2	1186
652.4	1187
652.6	1188
652.8	1179
653.0	1173
653.2	1160
653.4	1148
653.6	1145
653.8	1148
654.0	1144
654.2	1144
654.4	1131
654.6	1118
654.8	1122
655.0	1124
655.2	1120
655.4	1114
655.6	1101
655.8	1090
656.0	1092
656.2	1092
656.4	1087
656.6	1070
656.8	1064
657.0	1069
657.2	1074
657.4	1075
657.6	1064
657.8	1051
658.0	1044
658.2	1042
658.4	1033
658.6	1026
658.8	1014
659.0	1010
659.2	1012
659.4	1009
659.6	1004
659.8	991.9
660.0	985.6
660.2	979.7
660.4	981.6
660.6	979.1
660.8	975.4
661.0	965.1
661.2	960.5
661.4	955.3
661.6	955.7
661.8	961.2
662.0	956.8
662.2	950.5
662.4	940.2
662.6	930.0
662.8	923.9
663.0	920.6
663.2	912.5
663.4	907.0
663.6	897.2
663.8	892.2
664.0	891.9
664.2	881.5
664.4	879.3
664.6	880.3
664.8	881.1
665.0	881.6
665.2	879.1
665.4	862.7
665.6	851.8
665.8	847.6
666.0	849.3
666.2	846.4
666.4	845.1
666.6	840.7
666.8	828.8
667.0	817.4
667.2	806.4
667.4	798.0
667.6	799.3
667.8	804.5
668.0	798.0
668.2	799.3
668.4	795.9
668.6	792.1
668.8	790.4
669.0	785.8
669.2	773.1
669.4	767.7
669.6	768.8
669.8	769.7
670.0	771.2
670.2	770.4
670.4	758.5
670.6	750.5
670.8	747.8
671.0	738.9
671.2	734.0
671.4	735.0
671.6	731.1
671.8	730.3
672.0	726.0
672.2	715.9
672.4	711.7
672.6	708.2
672.8	702.5
673.0	698.2
673.2	692.5
673.4	685.6
673.6	685.2
673.8	684.5
674.0	685.5
674.2	686.4
674.4	680.3
674.6	671.7
674.8	668.5
675.0	669.4
675.2	666.9
675.4	661.1
675.6	653.8
675.8	643.0
676.0	638.9
676.2	642.9
676.4	638.6
676.6	637.0
676.8	638.1
677.0	635.1
677.2	629.1
677.4	623.7
677.6	616.9
677.8	606.7
678.0	602.1
678.2	600.9
678.4	596.7
678.6	592.1
678.8	593.8
679.0	594.3
679.2	592.4
679.4	597.1
679.6	595.5
679.8	587.9
680.0	580.9
680.2	570.3
680.4	560.3
680.6	563.7
680.8	564.2
681.0	565.6
681.2	564.1
681.4	552.3
681.6	548.3
681.8	545.9
682.0	544.8
682.2	545.2
682.4	543.2
682.6	536.8
682.8	535.6
683.0	538.0
683.2	537.3
683.4	535.1
683.6	535.8
683.8	527.8
684.0	522.2
684.2	514.9
684.4	504.9
684.6	502.4
684.8	506.4
685.0	504.0
685.2	506.9
685.4	501.5
685.6	492.4
685.8	488.1
686.0	487.8
686.2	487.8
686.4	488.6
686.6	487.2
686.8	482.2
687.0	476.1
687.2	468.6
687.4	469.4
687.6	464.5
687.8	461.4
688.0	456.8
688.2	451.8
688.4	447.9
688.6	450.8
688.8	452.7
689.0	450.4
689.2	444.0
689.4	437.8
689.6	436.9
689.8	437.7
690.0	442.0
690.2	443.8
690.4	437.2
690.6	430.3
690.8	422.5
691.0	417.8
691.2	419.9
691.4	422.3
691.6	420.1
691.8	421.8
692.0	417.8
692.2	414.2
692.4	415.4
692.6	409.3
692.8	403.8
693.0	399.6
693.2	395.2
693.4	394.7
693.6	398.2
693.8	395.2
694.0	397.3
694.2	394.2
694.4	389.1
694.6	387.3
694.8	383.7
695.0	379.0
695.2	376.7
695.4	370.0
695.6	367.7
695.8	367.9
696.0	370.1
696.2	374.1
696.4	372.3
696.6	367.9
696.8	363.4
697.0	357.8
697.2	356.7
697.4	357.1
697.6	355.7
697.8	352.6
698.0	351.5
698.2	346.4
698.4	345.7
698.6	345.6
698.8	347.4
699.0	342.6
699.2	340.7
699.4	335.7
699.6	331.6
699.8	330.9
700.0	330.9
700.2	328.5
700.4	325.9
700.6	324.3
700.8	323.5
701.0	326.6
701.2	325.1
701.4	321.9
701.6	319.8
701.8	313.4
702.0	309.4
702.2	306.7
702.4	304.4
702.6	302.9
702.8	309.2
703.0	307.7
703.2	305.5
703.4	301.0
703.6	300.0
703.8	297.8
704.0	297.8
704.2	296.8
704.4	294.4
704.6	293.1
704.8	294.2
705.0	293.0
705.2	293.6
705.4	294.8
705.6	291.8
705.8	289.8
706.0	284.2
706.2	279.9
706.4	278.8
706.6	278.0
706.8	277.8
707.0	276.2
707.2	276.3
707.4	273.2
707.6	272.5
707.8	270.9
708.0	268.0
708.2	266.7
708.4	272.5
708.6	265.6
708.8	264.5
709.0	258.9
709.2	257.2
709.4	258.6
709.6	265.3
709.8	264.4
710.0	261.8
710.2	256.2
710.4	256.9
710.6	258.9
710.8	259.0
711.0	254.5
711.2	246.8
711.4	243.3
711.6	245.0
711.8	246.2
712.0	242.8
712.2	235.0
712.4	234.1
712.6	234.7
712.8	233.8
713.0	232.8
713.2	230.8
713.4	225.3
713.6	226.9
713.8	228.1
714.0	226.7
714.2	226.8
714.4	228.2
714.6	224.5
714.8	218.5
715.0	217.0
715.2	210.5
715.4	211.8
715.6	217.2
715.8	215.5
716.0	211.1
716.2	211.5
716.4	203.2
716.6	203.8
716.8	205.8
717.0	206.8
717.2	205.3
717.4	205.1
717.6	200.6
717.8	196.9
718.0	193.7
718.2	192.8
718.4	190.7
718.6	193.8
718.8	195.2
719.0	195.4
719.2	190.9
719.4	186.6
719.6	187.4
719.8	191.4
720.0	191.7
720.2	189.1
720.4	182.2
720.6	177.5
720.8	176.2
721.0	175.9
721.2	176.7
721.4	176.1
721.6	177.7
721.8	178.2
722.0	176.0
722.2	172.4
722.4	168.9
722.6	164.6
722.8	166.9
723.0	165.3
723.2	164.7
723.4	164.7
723.6	163.3
723.8	161.4
724.0	163.0
724.2	159.0
724.4	157.8
724.6	156.8
724.8	156.2
725.0	154.5
725.2	154.4
725.4	152.1
725.6	154.8
725.8	157.1
726.0	156.3
726.2	151.9
726.4	148.0
726.6	144.9
726.8	148.5
727.0	150.6
727.2	149.1
727.4	147.7
727.6	145.3
727.8	143.8
728.0	144.8
728.2	142.4
728.4	139.3
728.6	139.6
728.8	137.4
729.0	135.6
729.2	134.8
729.4	133.2
729.6	133.2
729.8	135.7
730.0	136.3
730.2	138.3
730.4	133.6
730.6	129.9
730.8	127.7
731.0	127.0
731.2	129.8
731.4	134.6
731.6	132.1
731.8	127.3
732.0	124.9
732.2	124.1
732.4	123.1
732.6	124.7
732.8	123.6
733.0	119.3
733.2	119.0
733.4	119.3
733.6	117.9
733.8	118.2
734.0	117.8
734.2	117.5
734.4	118.9
734.6	116.8
734.8	116.0
735.0	113.6
735.2	112.9
735.4	112.7
735.6	113.4
735.8	110.6
736.0	110.8
736.2	108.2
736.4	108.4
736.6	108.2
736.8	107.7
737.0	106.4
737.2	105.1
737.4	102.6
737.6	100.6
737.8	98.79
738.0	100.6
738.2	100.7
738.4	102.1
738.6	101.7
738.8	101.0
739.0	99.61
739.2	99.77
739.4	98.97
739.6	99.68
739.8	98.44
740.0	96.53
740.2	95.17
740.4	92.57
740.6	93.77
740.8	95.20
741.0	94.95
741.2	92.68
741.4	92.22
741.6	91.87
741.8	91.74
742.0	92.52
742.2	89.45
742.4	87.85
742.6	86.03
742.8	84.65
743.0	83.80
743.2	86.21
743.4	86.52
743.6	87.64
743.8	86.62
744.0	84.41
744.2	83.06
744.4	81.90
744.6	81.03
744.8	79.51
745.0	79.34
745.2	81.61
745.4	83.04
745.6	82.64
745.8	82.18
746.0	82.38
746.2	81.16
746.4	80.70
746.6	80.43
746.8	79.54
747.0	78.44
747.2	78.25
747.4	75.17
747.6	72.96
747.8	72.98
748.0	75.65
748.2	76.87
748.4	75.46
748.6	75.09
748.8	73.49
749.0	71.73
749.2	71.47
749.4	69.72
749.6	66.94
749.8	68.06
750.0	67.94
750.2	68.13
750.4	68.54
750.6	69.03
750.8	69.83
751.0	70.43
751.2	69.45
751.4	67.72
751.6	67.32
751.8	66.83
752.0	65.51
752.2	64.63
752.4	63.16
752.6	62.55
752.8	62.67
753.0	62.97
753.2	63.79
753.4	64.96
753.6	63.95
753.8	62.71
754.0	60.24
754.2	58.84
754.4	59.51
754.6	58.95
754.8	59.74
755.0	60.21
755.2	58.63
755.4	57.00
755.6	56.10
755.8	54.44
756.0	56.76
756.2	58.19
756.4	58.87
756.6	58.29
756.8	56.74
757.0	53.83
757.2	51.17
757.4	50.53
757.6	50.84
757.8	52.10
758.0	53.61
758.2	53.97
758.4	52.10
758.6	52.49
758.8	50.14
759.0	49.77
759.2	50.07
759.4	51.60
759.6	52.41
759.8	53.45
760.0	52.03
760.2	50.44
760.4	48.94
760.6	49.60
760.8	47.87
761.0	47.66
761.2	47.90
761.4	47.34
761.6	48.33
761.8	48.98
762.0	46.23
762.2	46.30
762.4	46.02
762.6	45.80
762.8	47.07
763.0	46.20
763.2	45.74
763.4	47.44
763.6	46.85
763.8	47.12
764.0	46.63
764.2	44.89
764.4	44.59
764.6	43.53
764.8	42.13
765.0	41.90
765.2	40.70
765.4	41.12
765.6	42.76
765.8	43.36
766.0	43.27
766.2	42.57
766.4	41.00
766.6	40.46
766.8	39.66
767.0	40.27
767.2	40.68
767.4	40.93
767.6	39.84
767.8	38.53
768.0	37.73
768.2	39.19
768.4	40.06
768.6	39.97
768.8	39.43
769.0	39.69
769.2	39.75
769.4	38.70
769.6	37.73
769.8	36.96
770.0	37.44
770.2	37.53
770.4	37.12
770.6	35.61
770.8	35.63
771.0	35.22
771.2	34.33
771.4	33.67
771.6	34.12
771.8	34.20
772.0	34.64
772.2	34.42
772.4	34.01
772.6	34.25
772.8	33.33
773.0	32.42
773.2	32.76
773.4	32.40
773.6	31.64
773.8	31.21
774.0	30.60
774.2	29.47
774.4	30.11
774.6	30.11
774.8	30.35
775.0	31.69
775.2	32.93
775.4	33.05
775.6	33.02
775.8	32.49
776.0	31.63
776.2	30.65
776.4	30.27
776.6	30.62
776.8	29.63
777.0	30.21
777.2	30.20
777.4	29.79
777.6	30.42
777.8	31.05
778.0	29.76
778.2	29.08
778.4	28.49
778.6	27.93
778.8	28.52
779.0	29.04
779.2	28.63
779.4	28.91
779.6	29.20
779.8	27.95
780.0	26.76
780.2	25.92
780.4	26.88
780.6	28.53
780.8	28.93
781.0	27.30
781.2	25.41
781.4	25.99
781.6	28.23
781.8	29.02
782.0	29.02
782.2	27.45
782.4	25.72
782.6	25.67
782.8	25.69
783.0	25.33
783.2	25.23
783.4	24.91
783.6	24.06
783.8	23.40
784.0	23.50
784.2	23.84
784.4	24.42
784.6	24.79
784.8	24.36
785.0	24.51
785.2	24.08
785.4	24.59
785.6	23.61
785.8	23.20
786.0	23.90
786.2	23.85
786.4	23.96
786.6	24.28
786.8	24.11
787.0	23.98
787.2	24.71
787.4	23.19
787.6	22.89
787.8	22.45
788.0	22.81
788.2	21.97
788.4	21.97
788.6	21.50
788.8	21.87
789.0	21.50
789.2	21.52
789.4	20.96
789.6	21.35
789.8	21.61
790.0	22.50
790.2	22.33
790.4	22.97
790.6	22.89
790.8	23.08
791.0	23.28
791.2	22.85
791.4	23.00
791.6	22.75
791.8	22.30
792.0	22.34
792.2	22.57
792.4	22.24
792.6	21.39
792.8	20.92
793.0	20.77
793.2	20.78
793.4	21.41
793.6	22.00
793.8	20.49
794.0	20.35
794.2	19.08
794.4	18.18
794.6	18.65
794.8	19.72
795.0	20.32
795.2	21.47
795.4	21.77
795.6	22.03
795.8	21.24
796.0	20.58
796.2	20.07
796.4	19.50
796.6	20.10
796.8	20.15
797.0	19.49
797.2	18.99
797.4	18.53
797.6	18.40
797.8	19.19
798.0	18.94
798.2	19.87
798.4	20.55
798.6	19.97
798.8	19.82
799.0	19.11
799.2	17.91
799.4	18.21
799.6	18.43
799.8	18.82
800.0	19.36

