Sample:	'20211010A(EM)
File name:	B-CDs 1.FDS
Run date:	'09:34:10, 06/11/2023
Operator:	Administrator
Comment:	'

Instrument
Model:	F-4700 FL Spectrophotometer
Serial number:	2019-001
ROM Version:	5J24010 00

Instrument parameters
Measurement type:	Wavelength scan
Scan mode:	Emission
Data mode:	Fluorescence
EX WL:	350.0 nm
EM  Start WL:	370.0 nm
EM  End WL:	720.0 nm
Scan speed:	1200 nm/min
Delay:	0.0 s
EX Slit:	10.0 nm
EM Slit:	10.0 nm
PMT Voltage:	350 V
Response:	0.002 s
Corrected spectra:	Off
Shutter control:	On

Processing performed
Savitsky-Golay smoothed
Smoothing order:	3
Number of points:	7
Number of times:	1

Peak integration
Integration method:	Rectangular
Sensitivity:	1
Threshold:	1.000

Peaks
No.	Start(nm)	Apex(nm)	End(nm)	Height(Data)	Valley(nm)	Valley(Data)
1	370.0	446.6	447.6	5425	447.6	5414
2	447.6	447.8	720.0	5422	720.0	3.816

Data points
nm	Data
370.0	13.81
370.2	14.11
370.4	14.26
370.6	14.39
370.8	14.72
371.0	14.97
371.2	15.60
371.4	16.09
371.6	16.46
371.8	16.79
372.0	17.10
372.2	17.34
372.4	17.95
372.6	18.40
372.8	18.99
373.0	19.53
373.2	20.00
373.4	20.48
373.6	21.10
373.8	21.47
374.0	22.01
374.2	22.38
374.4	23.01
374.6	23.65
374.8	24.28
375.0	24.88
375.2	25.55
375.4	26.01
375.6	26.67
375.8	27.39
376.0	28.06
376.2	29.00
376.4	30.02
376.6	30.54
376.8	31.28
377.0	32.07
377.2	32.75
377.4	33.52
377.6	34.55
377.8	35.20
378.0	36.22
378.2	37.18
378.4	38.20
378.6	39.20
378.8	40.27
379.0	41.28
379.2	42.56
379.4	43.83
379.6	45.28
379.8	46.34
380.0	47.42
380.2	48.75
380.4	50.39
380.6	52.09
380.8	53.98
381.0	55.39
381.2	56.91
381.4	58.32
381.6	59.82
381.8	61.19
382.0	62.94
382.2	64.81
382.4	66.86
382.6	68.58
382.8	70.62
383.0	72.21
383.2	73.97
383.4	75.94
383.6	77.93
383.8	79.76
384.0	82.17
384.2	84.40
384.4	86.87
384.6	89.44
384.8	92.15
385.0	94.91
385.2	97.55
385.4	100.4
385.6	103.0
385.8	105.9
386.0	109.0
386.2	112.4
386.4	115.5
386.6	118.5
386.8	121.6
387.0	125.2
387.2	129.0
387.4	132.6
387.6	136.1
387.8	139.4
388.0	143.1
388.2	147.2
388.4	151.3
388.6	155.0
388.8	158.6
389.0	162.6
389.2	166.9
389.4	172.2
389.6	177.5
389.8	182.2
390.0	186.8
390.2	191.7
390.4	196.7
390.6	202.3
390.8	208.0
391.0	213.3
391.2	219.1
391.4	224.7
391.6	230.2
391.8	236.2
392.0	242.7
392.2	249.1
392.4	255.5
392.6	261.9
392.8	267.8
393.0	274.8
393.2	281.4
393.4	288.0
393.6	294.9
393.8	302.8
394.0	311.2
394.2	319.8
394.4	327.4
394.6	335.2
394.8	343.9
395.0	352.9
395.2	361.9
395.4	370.8
395.6	380.2
395.8	390.1
396.0	399.8
396.2	409.7
396.4	418.4
396.6	427.7
396.8	437.7
397.0	448.1
397.2	458.4
397.4	470.1
397.6	481.2
397.8	493.3
398.0	504.5
398.2	515.2
398.4	526.7
398.6	539.2
398.8	552.1
399.0	566.6
399.2	580.9
399.4	593.9
399.6	607.0
399.8	620.3
400.0	633.5
400.2	649.8
400.4	665.9
400.6	681.7
400.8	696.3
401.0	712.0
401.2	726.9
401.4	744.6
401.6	760.5
401.8	775.9
402.0	790.6
402.2	806.9
402.4	824.9
402.6	843.4
402.8	860.9
403.0	876.4
403.2	893.4
403.4	910.4
403.6	929.3
403.8	948.5
404.0	967.5
404.2	987.3
404.4	1007
404.6	1026
404.8	1045
405.0	1066
405.2	1088
405.4	1113
405.6	1136
405.8	1156
406.0	1175
406.2	1196
406.4	1216
406.6	1238
406.8	1261
407.0	1284
407.2	1307
407.4	1330
407.6	1354
407.8	1376
408.0	1399
408.2	1422
408.4	1446
408.6	1472
408.8	1500
409.0	1524
409.2	1548
409.4	1574
409.6	1598
409.8	1626
410.0	1652
410.2	1680
410.4	1708
410.6	1738
410.8	1763
411.0	1790
411.2	1812
411.4	1839
411.6	1865
411.8	1894
412.0	1922
412.2	1951
412.4	1974
412.6	1999
412.8	2025
413.0	2056
413.2	2087
413.4	2121
413.6	2149
413.8	2176
414.0	2205
414.2	2235
414.4	2262
414.6	2291
414.8	2320
415.0	2349
415.2	2380
415.4	2411
415.6	2441
415.8	2471
416.0	2505
416.2	2535
416.4	2565
416.6	2596
416.8	2627
417.0	2655
417.2	2685
417.4	2710
417.6	2738
417.8	2768
418.0	2803
418.2	2834
418.4	2866
418.6	2893
418.8	2918
419.0	2943
419.2	2973
419.4	3006
419.6	3043
419.8	3076
420.0	3110
420.2	3138
420.4	3162
420.6	3194
420.8	3221
421.0	3250
421.2	3286
421.4	3312
421.6	3339
421.8	3370
422.0	3399
422.2	3430
422.4	3465
422.6	3486
422.8	3514
423.0	3544
423.2	3574
423.4	3600
423.6	3628
423.8	3653
424.0	3683
424.2	3718
424.4	3748
424.6	3778
424.8	3808
425.0	3834
425.2	3858
425.4	3878
425.6	3900
425.8	3931
426.0	3964
426.2	3993
426.4	4027
426.6	4049
426.8	4071
427.0	4091
427.2	4113
427.4	4142
427.6	4177
427.8	4206
428.0	4233
428.2	4252
428.4	4272
428.6	4292
428.8	4314
429.0	4337
429.2	4362
429.4	4388
429.6	4414
429.8	4435
430.0	4451
430.2	4469
430.4	4495
430.6	4521
430.8	4546
431.0	4559
431.2	4579
431.4	4600
431.6	4636
431.8	4664
432.0	4682
432.2	4689
432.4	4708
432.6	4726
432.8	4755
433.0	4772
433.2	4789
433.4	4799
433.6	4823
433.8	4842
434.0	4864
434.2	4877
434.4	4891
434.6	4894
434.8	4912
435.0	4927
435.2	4951
435.4	4968
435.6	4991
435.8	5008
436.0	5026
436.2	5042
436.4	5050
436.6	5058
436.8	5073
437.0	5078
437.2	5088
437.4	5097
437.6	5102
437.8	5118
438.0	5132
438.2	5140
438.4	5151
438.6	5164
438.8	5173
439.0	5187
439.2	5198
439.4	5208
439.6	5223
439.8	5238
440.0	5252
440.2	5266
440.4	5271
440.6	5265
440.8	5269
441.0	5276
441.2	5288
441.4	5296
441.6	5308
441.8	5321
442.0	5336
442.2	5337
442.4	5343
442.6	5338
442.8	5344
443.0	5358
443.2	5367
443.4	5351
443.6	5353
443.8	5348
444.0	5350
444.2	5359
444.4	5365
444.6	5369
444.8	5385
445.0	5400
445.2	5413
445.4	5419
445.6	5413
445.8	5409
446.0	5408
446.2	5412
446.4	5419
446.6	5425
446.8	5419
447.0	5419
447.2	5419
447.4	5415
447.6	5414
447.8	5422
448.0	5418
448.2	5422
448.4	5422
448.6	5418
448.8	5411
449.0	5416
449.2	5414
449.4	5420
449.6	5406
449.8	5397
450.0	5388
450.2	5392
450.4	5410
450.6	5422
450.8	5402
451.0	5391
451.2	5379
451.4	5386
451.6	5397
451.8	5394
452.0	5386
452.2	5391
452.4	5380
452.6	5381
452.8	5372
453.0	5362
453.2	5364
453.4	5373
453.6	5365
453.8	5365
454.0	5352
454.2	5329
454.4	5320
454.6	5322
454.8	5333
455.0	5344
455.2	5343
455.4	5327
455.6	5311
455.8	5300
456.0	5297
456.2	5289
456.4	5286
456.6	5280
456.8	5277
457.0	5265
457.2	5260
457.4	5251
457.6	5242
457.8	5237
458.0	5240
458.2	5232
458.4	5227
458.6	5223
458.8	5212
459.0	5202
459.2	5192
459.4	5185
459.6	5175
459.8	5164
460.0	5152
460.2	5152
460.4	5145
460.6	5141
460.8	5124
461.0	5113
461.2	5100
461.4	5099
461.6	5107
461.8	5095
462.0	5079
462.2	5072
462.4	5059
462.6	5049
462.8	5055
463.0	5042
463.2	5027
463.4	5010
463.6	4987
463.8	4966
464.0	4964
464.2	4966
464.4	4960
464.6	4951
464.8	4936
465.0	4921
465.2	4919
465.4	4924
465.6	4913
465.8	4900
466.0	4875
466.2	4855
466.4	4844
466.6	4846
466.8	4835
467.0	4824
467.2	4805
467.4	4786
467.6	4776
467.8	4766
468.0	4751
468.2	4739
468.4	4727
468.6	4721
468.8	4717
469.0	4707
469.2	4692
469.4	4680
469.6	4661
469.8	4655
470.0	4642
470.2	4633
470.4	4624
470.6	4612
470.8	4595
471.0	4581
471.2	4561
471.4	4548
471.6	4539
471.8	4526
472.0	4520
472.2	4497
472.4	4482
472.6	4470
472.8	4453
473.0	4440
473.2	4433
473.4	4416
473.6	4416
473.8	4407
474.0	4395
474.2	4376
474.4	4364
474.6	4351
474.8	4342
475.0	4324
475.2	4311
475.4	4293
475.6	4284
475.8	4282
476.0	4269
476.2	4256
476.4	4240
476.6	4220
476.8	4204
477.0	4199
477.2	4185
477.4	4168
477.6	4154
477.8	4141
478.0	4131
478.2	4127
478.4	4120
478.6	4105
478.8	4090
479.0	4080
479.2	4066
479.4	4055
479.6	4048
479.8	4040
480.0	4028
480.2	4016
480.4	3995
480.6	3976
480.8	3959
481.0	3951
481.2	3941
481.4	3937
481.6	3928
481.8	3918
482.0	3905
482.2	3894
482.4	3877
482.6	3863
482.8	3857
483.0	3848
483.2	3838
483.4	3828
483.6	3816
483.8	3799
484.0	3788
484.2	3774
484.4	3762
484.6	3752
484.8	3747
485.0	3735
485.2	3726
485.4	3715
485.6	3704
485.8	3687
486.0	3674
486.2	3658
486.4	3648
486.6	3637
486.8	3633
487.0	3627
487.2	3619
487.4	3608
487.6	3597
487.8	3583
488.0	3574
488.2	3563
488.4	3549
488.6	3535
488.8	3519
489.0	3505
489.2	3495
489.4	3483
489.6	3476
489.8	3465
490.0	3456
490.2	3444
490.4	3437
490.6	3425
490.8	3416
491.0	3401
491.2	3391
491.4	3375
491.6	3367
491.8	3357
492.0	3351
492.2	3340
492.4	3324
492.6	3305
492.8	3291
493.0	3280
493.2	3272
493.4	3264
493.6	3247
493.8	3234
494.0	3222
494.2	3213
494.4	3203
494.6	3191
494.8	3175
495.0	3161
495.2	3146
495.4	3140
495.6	3129
495.8	3119
496.0	3107
496.2	3092
496.4	3074
496.6	3058
496.8	3040
497.0	3026
497.2	3018
497.4	3015
497.6	3011
497.8	3000
498.0	2993
498.2	2980
498.4	2963
498.6	2949
498.8	2935
499.0	2920
499.2	2911
499.4	2896
499.6	2880
499.8	2866
500.0	2856
500.2	2846
500.4	2837
500.6	2825
500.8	2810
501.0	2799
501.2	2787
501.4	2775
501.6	2762
501.8	2752
502.0	2739
502.2	2729
502.4	2715
502.6	2702
502.8	2688
503.0	2676
503.2	2666
503.4	2655
503.6	2642
503.8	2629
504.0	2617
504.2	2608
504.4	2598
504.6	2586
504.8	2572
505.0	2554
505.2	2541
505.4	2531
505.6	2522
505.8	2515
506.0	2501
506.2	2488
506.4	2477
506.6	2467
506.8	2454
507.0	2443
507.2	2428
507.4	2414
507.6	2399
507.8	2389
508.0	2374
508.2	2365
508.4	2356
508.6	2348
508.8	2339
509.0	2329
509.2	2315
509.4	2301
509.6	2288
509.8	2277
510.0	2266
510.2	2255
510.4	2244
510.6	2234
510.8	2227
511.0	2215
511.2	2203
511.4	2189
511.6	2174
511.8	2163
512.0	2156
512.2	2146
512.4	2137
512.6	2124
512.8	2113
513.0	2102
513.2	2091
513.4	2079
513.6	2069
513.8	2059
514.0	2050
514.2	2039
514.4	2028
514.6	2016
514.8	2008
515.0	1998
515.2	1986
515.4	1973
515.6	1961
515.8	1950
516.0	1941
516.2	1931
516.4	1922
516.6	1910
516.8	1902
517.0	1893
517.2	1881
517.4	1871
517.6	1863
517.8	1852
518.0	1843
518.2	1832
518.4	1821
518.6	1812
518.8	1804
519.0	1794
519.2	1785
519.4	1775
519.6	1764
519.8	1753
520.0	1743
520.2	1731
520.4	1721
520.6	1714
520.8	1705
521.0	1696
521.2	1687
521.4	1678
521.6	1667
521.8	1660
522.0	1650
522.2	1640
522.4	1631
522.6	1623
522.8	1612
523.0	1605
523.2	1595
523.4	1585
523.6	1577
523.8	1568
524.0	1560
524.2	1554
524.4	1546
524.6	1536
524.8	1527
525.0	1516
525.2	1507
525.4	1499
525.6	1490
525.8	1482
526.0	1474
526.2	1465
526.4	1456
526.6	1447
526.8	1440
527.0	1434
527.2	1427
527.4	1419
527.6	1410
527.8	1402
528.0	1393
528.2	1385
528.4	1378
528.6	1368
528.8	1360
529.0	1351
529.2	1343
529.4	1338
529.6	1332
529.8	1324
530.0	1318
530.2	1309
530.4	1301
530.6	1293
530.8	1284
531.0	1276
531.2	1270
531.4	1261
531.6	1256
531.8	1249
532.0	1241
532.2	1232
532.4	1224
532.6	1215
532.8	1209
533.0	1202
533.2	1196
533.4	1188
533.6	1181
533.8	1176
534.0	1172
534.2	1164
534.4	1158
534.6	1147
534.8	1139
535.0	1133
535.2	1127
535.4	1120
535.6	1115
535.8	1106
536.0	1099
536.2	1093
536.4	1087
536.6	1080
536.8	1072
537.0	1066
537.2	1061
537.4	1056
537.6	1050
537.8	1043
538.0	1036
538.2	1031
538.4	1026
538.6	1020
538.8	1013
539.0	1005
539.2	999.3
539.4	995.1
539.6	989.4
539.8	982.5
540.0	976.4
540.2	968.3
540.4	962.6
540.6	957.0
540.8	950.8
541.0	944.7
541.2	939.8
541.4	934.3
541.6	929.3
541.8	922.5
542.0	918.5
542.2	913.9
542.4	908.3
542.6	902.0
542.8	895.4
543.0	887.0
543.2	882.2
543.4	879.0
543.6	875.1
543.8	869.7
544.0	865.3
544.2	858.8
544.4	852.4
544.6	846.5
544.8	839.8
545.0	834.5
545.2	832.4
545.4	828.3
545.6	825.5
545.8	820.3
546.0	812.9
546.2	808.1
546.4	803.5
546.6	799.1
546.8	794.9
547.0	790.0
547.2	782.7
547.4	777.2
547.6	772.0
547.8	766.5
548.0	761.3
548.2	758.3
548.4	753.1
548.6	748.9
548.8	746.1
549.0	740.3
549.2	735.3
549.4	731.1
549.6	726.0
549.8	721.5
550.0	717.4
550.2	713.1
550.4	709.0
550.6	704.5
550.8	700.4
551.0	695.7
551.2	691.1
551.4	687.5
551.6	683.7
551.8	679.5
552.0	676.2
552.2	671.2
552.4	666.7
552.6	663.0
552.8	658.4
553.0	652.9
553.2	649.3
553.4	645.0
553.6	642.0
553.8	638.9
554.0	634.7
554.2	629.5
554.4	625.1
554.6	620.7
554.8	617.3
555.0	613.2
555.2	610.6
555.4	607.7
555.6	602.8
555.8	598.8
556.0	594.0
556.2	589.1
556.4	586.2
556.6	583.1
556.8	579.4
557.0	577.9
557.2	575.1
557.4	571.6
557.6	567.6
557.8	564.2
558.0	560.1
558.2	556.5
558.4	552.0
558.6	547.5
558.8	543.8
559.0	541.5
559.2	538.7
559.4	535.3
559.6	532.2
559.8	529.0
560.0	525.9
560.2	523.2
560.4	519.9
560.6	516.2
560.8	513.5
561.0	509.8
561.2	506.2
561.4	503.1
561.6	500.0
561.8	496.8
562.0	493.1
562.2	489.1
562.4	485.4
562.6	482.1
562.8	479.6
563.0	477.4
563.2	475.0
563.4	472.8
563.6	469.8
563.8	467.0
564.0	463.6
564.2	460.6
564.4	457.7
564.6	453.9
564.8	450.5
565.0	447.9
565.2	445.0
565.4	442.6
565.6	440.4
565.8	437.3
566.0	434.4
566.2	432.5
566.4	429.5
566.6	426.4
566.8	423.9
567.0	421.2
567.2	417.9
567.4	416.0
567.6	412.4
567.8	409.8
568.0	407.5
568.2	404.4
568.4	402.0
568.6	399.7
568.8	396.9
569.0	395.7
569.2	393.9
569.4	391.2
569.6	388.8
569.8	385.4
570.0	383.1
570.2	380.3
570.4	377.7
570.6	374.3
570.8	372.0
571.0	369.4
571.2	368.1
571.4	365.5
571.6	363.6
571.8	361.1
572.0	359.5
572.2	356.8
572.4	354.7
572.6	352.5
572.8	350.3
573.0	347.9
573.2	345.8
573.4	343.0
573.6	340.6
573.8	338.8
574.0	336.0
574.2	334.2
574.4	332.5
574.6	330.3
574.8	328.3
575.0	326.7
575.2	324.3
575.4	322.6
575.6	320.8
575.8	318.9
576.0	317.1
576.2	314.5
576.4	310.9
576.6	307.9
576.8	306.6
577.0	305.2
577.2	304.1
577.4	302.7
577.6	300.2
577.8	298.3
578.0	296.7
578.2	294.3
578.4	292.6
578.6	291.4
578.8	289.9
579.0	287.9
579.2	285.9
579.4	283.8
579.6	282.3
579.8	280.3
580.0	278.3
580.2	275.1
580.4	272.5
580.6	270.5
580.8	270.0
581.0	269.4
581.2	268.6
581.4	266.6
581.6	264.1
581.8	262.0
582.0	260.8
582.2	259.5
582.4	258.6
582.6	256.8
582.8	254.8
583.0	253.0
583.2	251.6
583.4	250.5
583.6	249.6
583.8	248.3
584.0	246.7
584.2	244.7
584.4	243.6
584.6	242.0
584.8	239.9
585.0	237.7
585.2	236.0
585.4	234.0
585.6	232.8
585.8	231.5
586.0	230.4
586.2	228.5
586.4	227.5
586.6	225.8
586.8	224.1
587.0	222.6
587.2	221.8
587.4	220.3
587.6	219.5
587.8	218.5
588.0	217.4
588.2	215.2
588.4	213.7
588.6	212.7
588.8	211.4
589.0	210.2
589.2	208.6
589.4	206.4
589.6	204.5
589.8	203.2
590.0	202.1
590.2	200.8
590.4	199.8
590.6	198.6
590.8	197.4
591.0	196.3
591.2	195.6
591.4	194.3
591.6	193.3
591.8	191.8
592.0	190.8
592.2	189.3
592.4	188.2
592.6	186.7
592.8	185.3
593.0	184.4
593.2	183.2
593.4	181.9
593.6	180.6
593.8	179.5
594.0	178.7
594.2	177.9
594.4	176.9
594.6	175.9
594.8	174.5
595.0	173.5
595.2	172.5
595.4	171.0
595.6	170.2
595.8	169.2
596.0	168.1
596.2	166.8
596.4	165.8
596.6	164.4
596.8	163.4
597.0	162.6
597.2	161.2
597.4	160.1
597.6	159.4
597.8	158.4
598.0	157.4
598.2	156.7
598.4	155.2
598.6	154.6
598.8	154.0
599.0	153.2
599.2	151.6
599.4	150.5
599.6	149.0
599.8	148.1
600.0	147.1
600.2	146.5
600.4	145.1
600.6	144.4
600.8	143.6
601.0	142.9
601.2	142.8
601.4	142.0
601.6	140.7
601.8	139.5
602.0	138.3
602.2	137.6
602.4	137.4
602.6	137.0
602.8	135.8
603.0	134.1
603.2	132.5
603.4	131.8
603.6	131.4
603.8	131.3
604.0	130.5
604.2	129.3
604.4	127.9
604.6	127.4
604.8	126.8
605.0	126.2
605.2	126.1
605.4	125.2
605.6	124.1
605.8	123.0
606.0	122.1
606.2	121.0
606.4	120.5
606.6	119.7
606.8	118.9
607.0	117.8
607.2	116.9
607.4	116.0
607.6	115.5
607.8	115.1
608.0	114.4
608.2	113.4
608.4	112.5
608.6	111.8
608.8	111.4
609.0	110.8
609.2	110.1
609.4	109.4
609.6	108.7
609.8	107.9
610.0	107.0
610.2	106.4
610.4	105.6
610.6	105.0
610.8	104.2
611.0	103.6
611.2	102.8
611.4	102.5
611.6	101.8
611.8	101.0
612.0	100.2
612.2	99.49
612.4	98.73
612.6	98.20
612.8	97.23
613.0	96.26
613.2	95.74
613.4	95.41
613.6	95.13
613.8	94.58
614.0	94.13
614.2	93.62
614.4	92.83
614.6	92.10
614.8	91.13
615.0	90.32
615.2	90.01
615.4	89.45
615.6	88.80
615.8	88.13
616.0	87.25
616.2	86.78
616.4	86.30
616.6	85.50
616.8	85.33
617.0	84.98
617.2	84.56
617.4	84.01
617.6	83.25
617.8	82.34
618.0	81.81
618.2	81.42
618.4	81.05
618.6	80.49
618.8	79.89
619.0	79.34
619.2	79.08
619.4	78.60
619.6	78.09
619.8	77.34
620.0	76.61
620.2	76.03
620.4	75.68
620.6	74.96
620.8	74.44
621.0	73.84
621.2	73.17
621.4	72.62
621.6	72.25
621.8	71.83
622.0	71.60
622.2	71.41
622.4	70.80
622.6	70.49
622.8	70.08
623.0	69.55
623.2	68.96
623.4	68.43
623.6	67.71
623.8	67.44
624.0	67.11
624.2	66.66
624.4	66.18
624.6	65.66
624.8	64.96
625.0	64.24
625.2	63.85
625.4	63.24
625.6	63.06
625.8	62.74
626.0	62.48
626.2	62.00
626.4	61.67
626.6	61.14
626.8	61.05
627.0	60.77
627.2	60.46
627.4	59.96
627.6	59.33
627.8	58.57
628.0	58.05
628.2	57.52
628.4	57.16
628.6	56.96
628.8	56.99
629.0	56.86
629.2	56.52
629.4	56.00
629.6	55.49
629.8	54.87
630.0	54.53
630.2	54.10
630.4	53.64
630.6	53.26
630.8	52.84
631.0	52.49
631.2	52.33
631.4	52.12
631.6	51.96
631.8	51.61
632.0	50.96
632.2	50.77
632.4	50.57
632.6	50.24
632.8	50.24
633.0	49.86
633.2	48.95
633.4	48.52
633.6	47.96
633.8	47.43
634.0	47.61
634.2	47.60
634.4	47.33
634.6	47.13
634.8	46.64
635.0	46.03
635.2	45.69
635.4	45.34
635.6	44.92
635.8	44.62
636.0	44.20
636.2	43.88
636.4	43.69
636.6	43.53
636.8	43.23
637.0	42.73
637.2	42.31
637.4	42.05
637.6	41.75
637.8	41.36
638.0	41.00
638.2	40.60
638.4	40.54
638.6	40.57
638.8	40.57
639.0	40.14
639.2	39.69
639.4	39.08
639.6	38.80
639.8	38.79
640.0	38.76
640.2	38.46
640.4	38.48
640.6	38.15
640.8	37.96
641.0	37.75
641.2	37.43
641.4	37.00
641.6	36.87
641.8	36.59
642.0	36.22
642.2	35.78
642.4	35.49
642.6	35.36
642.8	35.36
643.0	35.23
643.2	34.94
643.4	34.57
643.6	34.32
643.8	34.13
644.0	33.90
644.2	33.74
644.4	33.44
644.6	33.09
644.8	32.79
645.0	32.39
645.2	32.27
645.4	32.24
645.6	31.94
645.8	31.74
646.0	31.55
646.2	31.36
646.4	31.27
646.6	31.15
646.8	30.98
647.0	30.80
647.2	30.55
647.4	30.37
647.6	29.95
647.8	29.67
648.0	29.72
648.2	29.45
648.4	28.99
648.6	28.77
648.8	28.47
649.0	28.20
649.2	28.29
649.4	28.31
649.6	28.03
649.8	27.71
650.0	27.57
650.2	27.30
650.4	27.12
650.6	27.06
650.8	26.68
651.0	26.44
651.2	26.33
651.4	26.32
651.6	26.21
651.8	26.02
652.0	25.72
652.2	25.39
652.4	25.16
652.6	25.03
652.8	24.93
653.0	24.75
653.2	24.71
653.4	24.40
653.6	24.14
653.8	23.91
654.0	23.93
654.2	23.71
654.4	23.67
654.6	23.64
654.8	23.32
655.0	23.09
655.2	22.97
655.4	22.63
655.6	22.49
655.8	22.43
656.0	22.32
656.2	22.25
656.4	22.34
656.6	22.24
656.8	22.00
657.0	21.62
657.2	21.33
657.4	21.20
657.6	21.29
657.8	21.22
658.0	21.09
658.2	20.97
658.4	20.71
658.6	20.46
658.8	20.33
659.0	20.02
659.2	19.92
659.4	19.89
659.6	19.69
659.8	19.62
660.0	19.55
660.2	19.43
660.4	19.35
660.6	19.37
660.8	19.15
661.0	19.03
661.2	18.81
661.4	18.66
661.6	18.35
661.8	18.19
662.0	18.11
662.2	18.05
662.4	18.02
662.6	17.90
662.8	17.74
663.0	17.50
663.2	17.41
663.4	17.26
663.6	17.32
663.8	17.30
664.0	17.30
664.2	17.09
664.4	16.83
664.6	16.57
664.8	16.58
665.0	16.61
665.2	16.57
665.4	16.49
665.6	16.44
665.8	16.32
666.0	16.16
666.2	16.16
666.4	15.98
666.6	15.87
666.8	15.65
667.0	15.36
667.2	15.10
667.4	15.09
667.6	15.06
667.8	15.10
668.0	15.07
668.2	14.89
668.4	14.75
668.6	14.82
668.8	14.73
669.0	14.53
669.2	14.40
669.4	14.12
669.6	13.97
669.8	14.01
670.0	13.94
670.2	13.77
670.4	13.66
670.6	13.61
670.8	13.58
671.0	13.56
671.2	13.54
671.4	13.44
671.6	13.33
671.8	13.19
672.0	13.03
672.2	12.89
672.4	12.87
672.6	12.82
672.8	12.84
673.0	12.75
673.2	12.65
673.4	12.50
673.6	12.37
673.8	12.22
674.0	12.21
674.2	12.26
674.4	12.26
674.6	12.25
674.8	12.08
675.0	11.98
675.2	11.89
675.4	11.79
675.6	11.68
675.8	11.56
676.0	11.50
676.2	11.60
676.4	11.54
676.6	11.41
676.8	11.39
677.0	11.13
677.2	11.11
677.4	11.10
677.6	11.03
677.8	10.84
678.0	10.71
678.2	10.61
678.4	10.59
678.6	10.55
678.8	10.58
679.0	10.38
679.2	10.26
679.4	10.25
679.6	10.22
679.8	10.19
680.0	10.16
680.2	10.07
680.4	10.00
680.6	9.850
680.8	9.765
681.0	9.830
681.2	9.777
681.4	9.793
681.6	9.655
681.8	9.493
682.0	9.311
682.2	9.426
682.4	9.388
682.6	9.416
682.8	9.214
683.0	9.226
683.2	9.083
683.4	9.069
683.6	8.896
683.8	8.803
684.0	8.608
684.2	8.666
684.4	8.687
684.6	8.706
684.8	8.692
685.0	8.737
685.2	8.656
685.4	8.644
685.6	8.527
685.8	8.324
686.0	8.253
686.2	8.224
686.4	8.280
686.6	8.315
686.8	8.277
687.0	8.183
687.2	8.166
687.4	8.143
687.6	8.075
687.8	7.939
688.0	7.874
688.2	7.754
688.4	7.788
688.6	7.801
688.8	7.714
689.0	7.643
689.2	7.568
689.4	7.507
689.6	7.459
689.8	7.423
690.0	7.397
690.2	7.366
690.4	7.336
690.6	7.313
690.8	7.202
691.0	7.225
691.2	7.269
691.4	7.267
691.6	7.192
691.8	7.064
692.0	6.980
692.2	6.959
692.4	6.971
692.6	7.043
692.8	7.021
693.0	6.971
693.2	6.939
693.4	6.881
693.6	6.802
693.8	6.810
694.0	6.741
694.2	6.640
694.4	6.613
694.6	6.630
694.8	6.532
695.0	6.516
695.2	6.416
695.4	6.415
695.6	6.433
695.8	6.497
696.0	6.416
696.2	6.346
696.4	6.206
696.6	6.179
696.8	6.080
697.0	6.027
697.2	6.023
697.4	5.997
697.6	6.028
697.8	6.103
698.0	6.093
698.2	6.033
698.4	5.953
698.6	5.814
698.8	5.771
699.0	5.764
699.2	5.755
699.4	5.798
699.6	5.761
699.8	5.745
700.0	5.750
700.2	5.721
700.4	5.623
700.6	5.591
700.8	5.539
701.0	5.619
701.2	5.600
701.4	5.652
701.6	5.570
701.8	5.540
702.0	5.559
702.2	5.618
702.4	5.520
702.6	5.525
702.8	5.433
703.0	5.430
703.2	5.439
703.4	5.506
703.6	5.463
703.8	5.402
704.0	5.379
704.2	5.337
704.4	5.265
704.6	5.237
704.8	5.136
705.0	5.052
705.2	5.089
705.4	5.125
705.6	5.138
705.8	5.146
706.0	5.107
706.2	5.122
706.4	5.122
706.6	5.112
706.8	5.046
707.0	5.040
707.2	4.946
707.4	4.999
707.6	4.935
707.8	4.910
708.0	4.843
708.2	4.776
708.4	4.737
708.6	4.738
708.8	4.640
709.0	4.624
709.2	4.571
709.4	4.465
709.6	4.602
709.8	4.720
710.0	4.754
710.2	4.670
710.4	4.560
710.6	4.412
710.8	4.366
711.0	4.434
711.2	4.504
711.4	4.456
711.6	4.475
711.8	4.465
712.0	4.393
712.2	4.492
712.4	4.536
712.6	4.485
712.8	4.429
713.0	4.350
713.2	4.311
713.4	4.435
713.6	4.467
713.8	4.440
714.0	4.336
714.2	4.240
714.4	4.140
714.6	4.132
714.8	4.165
715.0	4.222
715.2	4.193
715.4	4.176
715.6	4.087
715.8	4.112
716.0	4.152
716.2	4.168
716.4	4.173
716.6	4.149
716.8	4.028
717.0	4.055
717.2	4.031
717.4	3.934
717.6	3.898
717.8	3.880
718.0	3.847
718.2	3.876
718.4	3.860
718.6	3.770
718.8	3.722
719.0	3.677
719.2	3.731
719.4	3.751
719.6	3.783
719.8	3.807
720.0	3.816

