Sample:	'20211010A(EM)
File name:	r-c-dots 1;15.FDS
Run date:	'20:32:28, 03/21/2023
Operator:	Administrator
Comment:	'

Instrument
Model:	F-4700 FL Spectrophotometer
Serial number:	2019-001
ROM Version:	5J24010 00

Instrument parameters
Measurement type:	Wavelength scan
Scan mode:	Emission
Data mode:	Fluorescence
EX WL:	520.0 nm
EM  Start WL:	540.0 nm
EM  End WL:	900.0 nm
Scan speed:	1200 nm/min
Delay:	0.0 s
EX Slit:	10.0 nm
EM Slit:	10.0 nm
PMT Voltage:	570 V
Response:	0.002 s
Corrected spectra:	Off
Shutter control:	On

Processing performed
Savitsky-Golay smoothed
Smoothing order:	3
Number of points:	7
Number of times:	1

Peak integration
Integration method:	Rectangular
Sensitivity:	1
Threshold:	1.000

Peaks
No.	Start(nm)	Apex(nm)	End(nm)	Height(Data)	Valley(nm)	Valley(Data)
1	540.0	643.0	644.6	8838	644.6	8823
2	644.6	644.2	816.6	8834	816.6	47.97
3	816.6	817.4	900.0	49.64	900.0	3.297

Data points
nm	Data
540.0	1673
540.2	1676
540.4	1680
540.6	1685
540.8	1686
541.0	1692
541.2	1703
541.4	1706
541.6	1715
541.8	1721
542.0	1725
542.2	1736
542.4	1743
542.6	1744
542.8	1751
543.0	1760
543.2	1771
543.4	1777
543.6	1781
543.8	1784
544.0	1790
544.2	1803
544.4	1814
544.6	1816
544.8	1821
545.0	1820
545.2	1819
545.4	1826
545.6	1832
545.8	1839
546.0	1851
546.2	1862
546.4	1868
546.6	1875
546.8	1883
547.0	1884
547.2	1894
547.4	1899
547.6	1903
547.8	1910
548.0	1923
548.2	1927
548.4	1940
548.6	1946
548.8	1952
549.0	1960
549.2	1968
549.4	1971
549.6	1981
549.8	1990
550.0	1996
550.2	2006
550.4	2008
550.6	2015
550.8	2024
551.0	2038
551.2	2043
551.4	2049
551.6	2047
551.8	2055
552.0	2062
552.2	2072
552.4	2085
552.6	2098
552.8	2106
553.0	2119
553.2	2131
553.4	2134
553.6	2144
553.8	2152
554.0	2156
554.2	2163
554.4	2171
554.6	2182
554.8	2194
555.0	2207
555.2	2214
555.4	2221
555.6	2224
555.8	2235
556.0	2249
556.2	2261
556.4	2269
556.6	2275
556.8	2282
557.0	2293
557.2	2300
557.4	2308
557.6	2314
557.8	2321
558.0	2333
558.2	2350
558.4	2363
558.6	2376
558.8	2382
559.0	2392
559.2	2404
559.4	2418
559.6	2431
559.8	2447
560.0	2457
560.2	2468
560.4	2479
560.6	2490
560.8	2496
561.0	2515
561.2	2525
561.4	2530
561.6	2540
561.8	2555
562.0	2571
562.2	2591
562.4	2597
562.6	2602
562.8	2610
563.0	2625
563.2	2643
563.4	2657
563.6	2668
563.8	2682
564.0	2697
564.2	2711
564.4	2724
564.6	2739
564.8	2747
565.0	2758
565.2	2776
565.4	2788
565.6	2803
565.8	2818
566.0	2829
566.2	2847
566.4	2868
566.6	2883
566.8	2894
567.0	2908
567.2	2926
567.4	2941
567.6	2953
567.8	2963
568.0	2975
568.2	2992
568.4	3010
568.6	3022
568.8	3037
569.0	3052
569.2	3060
569.4	3074
569.6	3091
569.8	3110
570.0	3123
570.2	3143
570.4	3153
570.6	3167
570.8	3187
571.0	3210
571.2	3224
571.4	3243
571.6	3260
571.8	3266
572.0	3274
572.2	3288
572.4	3303
572.6	3321
572.8	3346
573.0	3362
573.2	3378
573.4	3390
573.6	3400
573.8	3412
574.0	3427
574.2	3440
574.4	3457
574.6	3473
574.8	3484
575.0	3494
575.2	3508
575.4	3522
575.6	3551
575.8	3574
576.0	3594
576.2	3607
576.4	3619
576.6	3620
576.8	3631
577.0	3646
577.2	3671
577.4	3693
577.6	3720
577.8	3725
578.0	3731
578.2	3743
578.4	3757
578.6	3773
578.8	3790
579.0	3803
579.2	3820
579.4	3840
579.6	3864
579.8	3873
580.0	3880
580.2	3893
580.4	3904
580.6	3915
580.8	3930
581.0	3932
581.2	3949
581.4	3971
581.6	3992
581.8	4004
582.0	4009
582.2	4017
582.4	4036
582.6	4062
582.8	4082
583.0	4087
583.2	4094
583.4	4103
583.6	4118
583.8	4142
584.0	4157
584.2	4166
584.4	4174
584.6	4179
584.8	4191
585.0	4205
585.2	4227
585.4	4239
585.6	4255
585.8	4270
586.0	4291
586.2	4303
586.4	4316
586.6	4320
586.8	4335
587.0	4345
587.2	4360
587.4	4371
587.6	4385
587.8	4402
588.0	4411
588.2	4418
588.4	4422
588.6	4431
588.8	4444
589.0	4457
589.2	4471
589.4	4491
589.6	4514
589.8	4538
590.0	4547
590.2	4553
590.4	4561
590.6	4565
590.8	4573
591.0	4578
591.2	4584
591.4	4597
591.6	4614
591.8	4637
592.0	4657
592.2	4661
592.4	4664
592.6	4669
592.8	4680
593.0	4697
593.2	4708
593.4	4710
593.6	4715
593.8	4724
594.0	4739
594.2	4756
594.4	4763
594.6	4776
594.8	4788
595.0	4797
595.2	4809
595.4	4824
595.6	4835
595.8	4853
596.0	4863
596.2	4874
596.4	4879
596.6	4891
596.8	4907
597.0	4920
597.2	4934
597.4	4948
597.6	4947
597.8	4952
598.0	4963
598.2	4968
598.4	4983
598.6	4997
598.8	4999
599.0	5001
599.2	5022
599.4	5035
599.6	5060
599.8	5077
600.0	5085
600.2	5088
600.4	5097
600.6	5105
600.8	5117
601.0	5137
601.2	5154
601.4	5171
601.6	5177
601.8	5184
602.0	5190
602.2	5198
602.4	5213
602.6	5221
602.8	5233
603.0	5252
603.2	5272
603.4	5278
603.6	5292
603.8	5295
604.0	5306
604.2	5317
604.4	5331
604.6	5336
604.8	5344
605.0	5358
605.2	5364
605.4	5373
605.6	5398
605.8	5414
606.0	5430
606.2	5450
606.4	5460
606.6	5474
606.8	5489
607.0	5497
607.2	5508
607.4	5530
607.6	5543
607.8	5562
608.0	5573
608.2	5584
608.4	5603
608.6	5625
608.8	5637
609.0	5652
609.2	5659
609.4	5668
609.6	5678
609.8	5698
610.0	5712
610.2	5740
610.4	5756
610.6	5772
610.8	5774
611.0	5786
611.2	5795
611.4	5827
611.6	5844
611.8	5865
612.0	5883
612.2	5907
612.4	5927
612.6	5958
612.8	5963
613.0	5971
613.2	5987
613.4	6004
613.6	6021
613.8	6045
614.0	6063
614.2	6082
614.4	6101
614.6	6120
614.8	6143
615.0	6158
615.2	6175
615.4	6193
615.6	6205
615.8	6228
616.0	6258
616.2	6286
616.4	6307
616.6	6329
616.8	6346
617.0	6373
617.2	6391
617.4	6412
617.6	6420
617.8	6428
618.0	6448
618.2	6477
618.4	6498
618.6	6517
618.8	6530
619.0	6549
619.2	6574
619.4	6594
619.6	6615
619.8	6635
620.0	6657
620.2	6679
620.4	6699
620.6	6714
620.8	6744
621.0	6779
621.2	6812
621.4	6841
621.6	6858
621.8	6873
622.0	6889
622.2	6909
622.4	6939
622.6	6972
622.8	7004
623.0	7030
623.2	7046
623.4	7066
623.6	7091
623.8	7110
624.0	7135
624.2	7169
624.4	7200
624.6	7228
624.8	7249
625.0	7263
625.2	7280
625.4	7305
625.6	7341
625.8	7369
626.0	7392
626.2	7419
626.4	7435
626.6	7459
626.8	7492
627.0	7519
627.2	7544
627.4	7573
627.6	7590
627.8	7617
628.0	7632
628.2	7657
628.4	7680
628.6	7707
628.8	7738
629.0	7773
629.2	7795
629.4	7825
629.6	7849
629.8	7865
630.0	7892
630.2	7918
630.4	7938
630.6	7962
630.8	7984
631.0	8001
631.2	8018
631.4	8043
631.6	8069
631.8	8099
632.0	8121
632.2	8139
632.4	8156
632.6	8176
632.8	8196
633.0	8228
633.2	8254
633.4	8272
633.6	8289
633.8	8294
634.0	8300
634.2	8317
634.4	8346
634.6	8370
634.8	8384
635.0	8407
635.2	8429
635.4	8450
635.6	8472
635.8	8495
636.0	8507
636.2	8523
636.4	8531
636.6	8543
636.8	8550
637.0	8565
637.2	8590
637.4	8619
637.6	8639
637.8	8656
638.0	8657
638.2	8653
638.4	8665
638.6	8678
638.8	8688
639.0	8691
639.2	8699
639.4	8717
639.6	8725
639.8	8743
640.0	8752
640.2	8760
640.4	8775
640.6	8785
640.8	8786
641.0	8787
641.2	8785
641.4	8800
641.6	8808
641.8	8814
642.0	8820
642.2	8820
642.4	8823
642.6	8834
642.8	8836
643.0	8838
643.2	8827
643.4	8825
643.6	8826
643.8	8828
644.0	8828
644.2	8834
644.4	8825
644.6	8823
644.8	8827
645.0	8831
645.2	8832
645.4	8832
645.6	8823
645.8	8812
646.0	8800
646.2	8791
646.4	8792
646.6	8786
646.8	8778
647.0	8777
647.2	8764
647.4	8750
647.6	8738
647.8	8722
648.0	8716
648.2	8713
648.4	8707
648.6	8693
648.8	8668
649.0	8653
649.2	8636
649.4	8620
649.6	8615
649.8	8594
650.0	8584
650.2	8581
650.4	8558
650.6	8539
650.8	8517
651.0	8492
651.2	8466
651.4	8450
651.6	8435
651.8	8421
652.0	8417
652.2	8408
652.4	8386
652.6	8366
652.8	8352
653.0	8328
653.2	8300
653.4	8263
653.6	8234
653.8	8212
654.0	8197
654.2	8185
654.4	8169
654.6	8141
654.8	8113
655.0	8076
655.2	8048
655.4	8020
655.6	8003
655.8	7977
656.0	7947
656.2	7908
656.4	7888
656.6	7855
656.8	7832
657.0	7802
657.2	7768
657.4	7749
657.6	7725
657.8	7698
658.0	7665
658.2	7630
658.4	7598
658.6	7576
658.8	7539
659.0	7507
659.2	7475
659.4	7445
659.6	7417
659.8	7383
660.0	7350
660.2	7304
660.4	7276
660.6	7246
660.8	7212
661.0	7179
661.2	7146
661.4	7109
661.6	7087
661.8	7056
662.0	7026
662.2	7000
662.4	6968
662.6	6939
662.8	6909
663.0	6872
663.2	6837
663.4	6804
663.6	6772
663.8	6732
664.0	6699
664.2	6652
664.4	6611
664.6	6568
664.8	6540
665.0	6514
665.2	6500
665.4	6471
665.6	6437
665.8	6392
666.0	6358
666.2	6324
666.4	6294
666.6	6259
666.8	6226
667.0	6205
667.2	6179
667.4	6143
667.6	6098
667.8	6039
668.0	5986
668.2	5947
668.4	5916
668.6	5891
668.8	5864
669.0	5830
669.2	5796
669.4	5755
669.6	5728
669.8	5699
670.0	5669
670.2	5634
670.4	5599
670.6	5557
670.8	5526
671.0	5502
671.2	5484
671.4	5444
671.6	5399
671.8	5366
672.0	5330
672.2	5298
672.4	5272
672.6	5228
672.8	5192
673.0	5173
673.2	5143
673.4	5108
673.6	5069
673.8	5034
674.0	5000
674.2	4971
674.4	4934
674.6	4899
674.8	4864
675.0	4833
675.2	4805
675.4	4772
675.6	4745
675.8	4724
676.0	4695
676.2	4665
676.4	4634
676.6	4595
676.8	4569
677.0	4539
677.2	4511
677.4	4488
677.6	4461
677.8	4438
678.0	4401
678.2	4365
678.4	4327
678.6	4289
678.8	4263
679.0	4242
679.2	4217
679.4	4198
679.6	4169
679.8	4131
680.0	4099
680.2	4066
680.4	4043
680.6	4023
680.8	3995
681.0	3965
681.2	3938
681.4	3908
681.6	3891
681.8	3862
682.0	3835
682.2	3810
682.4	3790
682.6	3760
682.8	3736
683.0	3702
683.2	3681
683.4	3658
683.6	3639
683.8	3616
684.0	3595
684.2	3579
684.4	3554
684.6	3532
684.8	3505
685.0	3478
685.2	3458
685.4	3441
685.6	3414
685.8	3390
686.0	3368
686.2	3349
686.4	3333
686.6	3305
686.8	3280
687.0	3255
687.2	3232
687.4	3207
687.6	3189
687.8	3163
688.0	3146
688.2	3131
688.4	3109
688.6	3085
688.8	3068
689.0	3045
689.2	3021
689.4	3003
689.6	2985
689.8	2973
690.0	2965
690.2	2944
690.4	2916
690.6	2895
690.8	2875
691.0	2863
691.2	2851
691.4	2832
691.6	2813
691.8	2790
692.0	2765
692.2	2744
692.4	2724
692.6	2713
692.8	2705
693.0	2691
693.2	2673
693.4	2657
693.6	2641
693.8	2632
694.0	2618
694.2	2605
694.4	2594
694.6	2577
694.8	2558
695.0	2541
695.2	2523
695.4	2508
695.6	2494
695.8	2477
696.0	2462
696.2	2449
696.4	2438
696.6	2417
696.8	2397
697.0	2385
697.2	2376
697.4	2370
697.6	2365
697.8	2350
698.0	2329
698.2	2317
698.4	2305
698.6	2295
698.8	2290
699.0	2277
699.2	2264
699.4	2249
699.6	2237
699.8	2227
700.0	2217
700.2	2205
700.4	2190
700.6	2173
700.8	2160
701.0	2147
701.2	2136
701.4	2126
701.6	2115
701.8	2106
702.0	2093
702.2	2085
702.4	2081
702.6	2067
702.8	2056
703.0	2043
703.2	2029
703.4	2019
703.6	2012
703.8	1996
704.0	1979
704.2	1968
704.4	1955
704.6	1944
704.8	1941
705.0	1931
705.2	1922
705.4	1915
705.6	1902
705.8	1889
706.0	1878
706.2	1865
706.4	1856
706.6	1850
706.8	1842
707.0	1831
707.2	1820
707.4	1811
707.6	1801
707.8	1789
708.0	1776
708.2	1762
708.4	1748
708.6	1739
708.8	1731
709.0	1727
709.2	1718
709.4	1710
709.6	1699
709.8	1685
710.0	1674
710.2	1664
710.4	1645
710.6	1632
710.8	1625
711.0	1619
711.2	1616
711.4	1612
711.6	1599
711.8	1588
712.0	1579
712.2	1569
712.4	1563
712.6	1555
712.8	1545
713.0	1534
713.2	1521
713.4	1512
713.6	1504
713.8	1492
714.0	1482
714.2	1474
714.4	1465
714.6	1457
714.8	1446
715.0	1435
715.2	1424
715.4	1417
715.6	1411
715.8	1403
716.0	1395
716.2	1384
716.4	1373
716.6	1362
716.8	1353
717.0	1347
717.2	1341
717.4	1332
717.6	1320
717.8	1308
718.0	1301
718.2	1297
718.4	1290
718.6	1280
718.8	1266
719.0	1253
719.2	1246
719.4	1241
719.6	1233
719.8	1223
720.0	1216
720.2	1209
720.4	1205
720.6	1198
720.8	1192
721.0	1181
721.2	1170
721.4	1161
721.6	1154
721.8	1146
722.0	1136
722.2	1125
722.4	1114
722.6	1103
722.8	1095
723.0	1091
723.2	1080
723.4	1073
723.6	1071
723.8	1065
724.0	1060
724.2	1054
724.4	1041
724.6	1030
724.8	1022
725.0	1008
725.2	1000
725.4	993.3
725.6	986.6
725.8	982.8
726.0	980.4
726.2	971.8
726.4	963.8
726.6	954.8
726.8	947.2
727.0	942.1
727.2	938.8
727.4	933.6
727.6	922.0
727.8	914.9
728.0	907.4
728.2	903.3
728.4	901.5
728.6	894.7
728.8	883.4
729.0	876.5
729.2	867.6
729.4	860.5
729.6	856.4
729.8	850.9
730.0	846.4
730.2	839.8
730.4	833.1
730.6	825.0
730.8	817.9
731.0	811.8
731.2	806.8
731.4	798.1
731.6	790.0
731.8	783.7
732.0	775.3
732.2	770.2
732.4	768.6
732.6	763.6
732.8	760.0
733.0	756.0
733.2	749.9
733.4	743.2
733.6	736.9
733.8	730.4
734.0	724.6
734.2	718.2
734.4	711.6
734.6	700.5
734.8	693.9
735.0	690.7
735.2	688.7
735.4	687.8
735.6	685.4
735.8	678.8
736.0	672.5
736.2	663.7
736.4	656.9
736.6	649.6
736.8	647.1
737.0	644.7
737.2	640.4
737.4	633.4
737.6	626.6
737.8	618.1
738.0	615.3
738.2	609.3
738.4	607.9
738.6	605.2
738.8	600.2
739.0	594.8
739.2	589.7
739.4	581.4
739.6	578.0
739.8	575.7
740.0	572.5
740.2	571.0
740.4	567.3
740.6	560.4
740.8	554.2
741.0	548.3
741.2	545.9
741.4	543.8
741.6	541.4
741.8	534.6
742.0	531.0
742.2	524.5
742.4	522.5
742.6	515.8
742.8	511.5
743.0	504.4
743.2	499.1
743.4	497.1
743.6	496.7
743.8	494.1
744.0	493.8
744.2	491.7
744.4	487.8
744.6	485.2
744.8	478.6
745.0	472.2
745.2	466.3
745.4	461.6
745.6	457.2
745.8	454.7
746.0	452.1
746.2	449.0
746.4	444.2
746.6	440.2
746.8	438.1
747.0	437.7
747.2	434.5
747.4	428.6
747.6	424.2
747.8	420.2
748.0	419.8
748.2	419.8
748.4	416.5
748.6	410.2
748.8	408.2
749.0	404.0
749.2	399.8
749.4	394.9
749.6	392.0
749.8	390.3
750.0	389.5
750.2	390.8
750.4	388.3
750.6	382.5
750.8	378.7
751.0	375.8
751.2	371.3
751.4	369.9
751.6	366.6
751.8	363.4
752.0	361.9
752.2	357.1
752.4	353.9
752.6	349.7
752.8	346.9
753.0	343.8
753.2	341.5
753.4	337.5
753.6	335.6
753.8	332.5
754.0	329.3
754.2	326.5
754.4	325.4
754.6	323.5
754.8	321.7
755.0	319.6
755.2	316.2
755.4	313.3
755.6	312.0
755.8	308.8
756.0	307.3
756.2	305.8
756.4	302.8
756.6	300.6
756.8	298.5
757.0	297.5
757.2	295.2
757.4	292.7
757.6	289.5
757.8	285.9
758.0	284.3
758.2	282.3
758.4	279.1
758.6	276.4
758.8	275.6
759.0	274.3
759.2	273.6
759.4	270.7
759.6	270.2
759.8	266.6
760.0	264.0
760.2	261.0
760.4	255.6
760.6	252.0
760.8	253.1
761.0	251.8
761.2	249.3
761.4	247.2
761.6	243.6
761.8	243.4
762.0	243.4
762.2	242.2
762.4	238.7
762.6	234.6
762.8	230.1
763.0	228.9
763.2	227.9
763.4	227.3
763.6	226.5
763.8	224.2
764.0	221.9
764.2	222.6
764.4	222.3
764.6	220.7
764.8	218.6
765.0	214.5
765.2	211.1
765.4	210.0
765.6	207.5
765.8	205.4
766.0	206.1
766.2	204.4
766.4	203.7
766.6	203.2
766.8	201.8
767.0	199.5
767.2	198.4
767.4	196.6
767.6	194.0
767.8	192.9
768.0	191.0
768.2	189.0
768.4	187.5
768.6	186.9
768.8	184.5
769.0	184.1
769.2	181.7
769.4	179.1
769.6	178.1
769.8	177.6
770.0	176.1
770.2	176.1
770.4	174.8
770.6	173.1
770.8	171.6
771.0	171.3
771.2	169.4
771.4	168.1
771.6	167.6
771.8	167.2
772.0	165.2
772.2	163.1
772.4	161.1
772.6	159.1
772.8	159.3
773.0	158.4
773.2	157.6
773.4	156.1
773.6	155.2
773.8	153.7
774.0	152.0
774.2	150.3
774.4	148.9
774.6	149.6
774.8	149.2
775.0	147.9
775.2	145.8
775.4	144.4
775.6	142.9
775.8	145.0
776.0	143.2
776.2	142.1
776.4	140.5
776.6	140.6
776.8	140.1
777.0	140.0
777.2	137.3
777.4	134.7
777.6	133.4
777.8	133.7
778.0	132.6
778.2	132.1
778.4	131.0
778.6	130.3
778.8	130.8
779.0	129.9
779.2	128.0
779.4	125.6
779.6	124.0
779.8	124.2
780.0	125.0
780.2	124.1
780.4	122.8
780.6	121.2
780.8	120.5
781.0	120.7
781.2	119.3
781.4	116.5
781.6	115.6
781.8	115.9
782.0	116.7
782.2	117.3
782.4	115.1
782.6	113.1
782.8	113.2
783.0	113.5
783.2	113.9
783.4	113.0
783.6	111.0
783.8	110.6
784.0	110.2
784.2	109.5
784.4	108.9
784.6	108.3
784.8	107.9
785.0	107.8
785.2	107.5
785.4	107.5
785.6	107.0
785.8	105.6
786.0	103.8
786.2	102.4
786.4	102.2
786.6	102.3
786.8	102.6
787.0	101.9
787.2	101.6
787.4	101.0
787.6	101.3
787.8	100.6
788.0	101.1
788.2	99.41
788.4	98.57
788.6	96.17
788.8	95.93
789.0	95.74
789.2	96.20
789.4	95.76
789.6	95.77
789.8	94.94
790.0	94.87
790.2	93.44
790.4	92.54
790.6	92.12
790.8	91.67
791.0	92.28
791.2	92.04
791.4	91.29
791.6	91.71
791.8	90.87
792.0	91.06
792.2	90.78
792.4	90.32
792.6	90.30
792.8	90.25
793.0	89.52
793.2	89.17
793.4	88.59
793.6	87.25
793.8	86.13
794.0	85.63
794.2	84.99
794.4	85.26
794.6	85.76
794.8	85.05
795.0	84.30
795.2	83.30
795.4	82.16
795.6	80.99
795.8	80.77
796.0	81.21
796.2	81.95
796.4	82.49
796.6	82.07
796.8	81.27
797.0	80.76
797.2	79.88
797.4	79.38
797.6	79.73
797.8	79.60
798.0	80.05
798.2	79.03
798.4	77.69
798.6	76.09
798.8	75.86
799.0	76.39
799.2	76.44
799.4	75.91
799.6	75.11
799.8	74.70
800.0	74.60
800.2	75.52
800.4	75.37
800.6	74.29
800.8	73.17
801.0	72.80
801.2	72.18
801.4	73.56
801.6	74.01
801.8	73.92
802.0	73.07
802.2	72.48
802.4	71.45
802.6	71.00
802.8	70.78
803.0	70.59
803.2	70.37
803.4	70.83
803.6	70.66
803.8	69.66
804.0	68.55
804.2	67.55
804.4	67.68
804.6	67.63
804.8	67.96
805.0	67.25
805.2	66.91
805.4	66.12
805.6	65.90
805.8	65.62
806.0	66.10
806.2	65.42
806.4	65.25
806.6	64.31
806.8	63.82
807.0	63.56
807.2	63.08
807.4	62.94
807.6	61.87
807.8	62.22
808.0	62.15
808.2	62.51
808.4	62.11
808.6	62.67
808.8	61.44
809.0	62.00
809.2	61.90
809.4	60.74
809.6	59.39
809.8	58.53
810.0	57.72
810.2	58.30
810.4	59.29
810.6	58.18
810.8	57.23
811.0	56.58
811.2	56.32
811.4	56.55
811.6	57.18
811.8	56.75
812.0	56.50
812.2	56.08
812.4	55.86
812.6	56.00
812.8	55.51
813.0	54.63
813.2	54.09
813.4	53.50
813.6	53.00
813.8	52.70
814.0	52.51
814.2	52.14
814.4	52.26
814.6	51.95
814.8	51.67
815.0	51.56
815.2	51.25
815.4	50.51
815.6	50.52
815.8	49.32
816.0	48.81
816.2	48.82
816.4	48.40
816.6	47.97
816.8	48.71
817.0	49.27
817.2	49.46
817.4	49.64
817.6	49.06
817.8	47.73
818.0	46.62
818.2	46.21
818.4	45.72
818.6	45.45
818.8	45.42
819.0	45.49
819.2	44.87
819.4	44.86
819.6	44.49
819.8	43.70
820.0	43.06
820.2	42.86
820.4	41.72
820.6	42.39
820.8	41.72
821.0	40.83
821.2	40.91
821.4	41.06
821.6	40.67
821.8	40.77
822.0	39.75
822.2	39.08
822.4	39.00
822.6	38.96
822.8	39.12
823.0	38.87
823.2	38.30
823.4	38.08
823.6	37.44
823.8	37.23
824.0	37.37
824.2	37.30
824.4	36.61
824.6	35.93
824.8	35.51
825.0	35.51
825.2	35.65
825.4	35.89
825.6	35.32
825.8	34.33
826.0	33.61
826.2	33.45
826.4	33.34
826.6	33.92
826.8	33.63
827.0	32.96
827.2	32.45
827.4	32.38
827.6	32.24
827.8	32.01
828.0	31.43
828.2	30.54
828.4	30.05
828.6	29.39
828.8	29.27
829.0	28.80
829.2	28.97
829.4	28.81
829.6	28.73
829.8	28.82
830.0	28.81
830.2	28.38
830.4	28.40
830.6	27.95
830.8	27.68
831.0	28.00
831.2	27.42
831.4	26.91
831.6	26.71
831.8	25.87
832.0	25.25
832.2	24.52
832.4	24.09
832.6	24.08
832.8	24.58
833.0	24.47
833.2	23.76
833.4	22.38
833.6	22.38
833.8	22.27
834.0	23.29
834.2	23.65
834.4	23.25
834.6	22.56
834.8	22.04
835.0	21.23
835.2	21.40
835.4	20.77
835.6	20.51
835.8	20.59
836.0	20.20
836.2	20.07
836.4	20.18
836.6	19.73
836.8	19.42
837.0	19.38
837.2	19.35
837.4	18.90
837.6	18.17
837.8	17.57
838.0	17.01
838.2	17.02
838.4	17.66
838.6	17.44
838.8	17.06
839.0	16.65
839.2	16.54
839.4	16.45
839.6	16.52
839.8	16.16
840.0	15.51
840.2	15.25
840.4	15.19
840.6	14.87
840.8	14.59
841.0	14.54
841.2	14.21
841.4	14.33
841.6	14.03
841.8	13.92
842.0	13.63
842.2	13.50
842.4	13.31
842.6	13.36
842.8	13.12
843.0	13.08
843.2	13.07
843.4	12.46
843.6	11.99
843.8	12.21
844.0	12.01
844.2	12.02
844.4	12.11
844.6	11.61
844.8	11.42
845.0	11.53
845.2	11.14
845.4	10.63
845.6	10.04
845.8	9.935
846.0	10.16
846.2	10.35
846.4	10.56
846.6	10.07
846.8	9.842
847.0	9.900
847.2	10.01
847.4	9.856
847.6	9.727
847.8	9.243
848.0	8.795
848.2	8.858
848.4	9.042
848.6	8.996
848.8	9.159
849.0	8.938
849.2	8.538
849.4	8.841
849.6	8.715
849.8	8.577
850.0	8.466
850.2	8.196
850.4	8.081
850.6	8.305
850.8	7.990
851.0	7.977
851.2	7.637
851.4	7.718
851.6	7.360
851.8	7.412
852.0	7.185
852.2	7.206
852.4	6.955
852.6	7.022
852.8	6.614
853.0	6.381
853.2	5.902
853.4	5.889
853.6	5.868
853.8	6.225
854.0	6.527
854.2	6.636
854.4	6.224
854.6	6.014
854.8	5.655
855.0	5.308
855.2	5.392
855.4	5.556
855.6	5.610
855.8	5.738
856.0	5.800
856.2	5.712
856.4	5.774
856.6	5.657
856.8	5.763
857.0	5.330
857.2	5.102
857.4	5.032
857.6	5.097
857.8	5.289
858.0	5.558
858.2	5.148
858.4	4.993
858.6	4.855
858.8	4.749
859.0	4.909
859.2	4.873
859.4	4.852
859.6	4.713
859.8	4.525
860.0	4.450
860.2	4.436
860.4	4.460
860.6	4.747
860.8	4.650
861.0	4.428
861.2	4.352
861.4	4.322
861.6	4.366
861.8	4.518
862.0	4.379
862.2	3.988
862.4	3.908
862.6	3.950
862.8	3.999
863.0	4.049
863.2	4.049
863.4	4.057
863.6	4.119
863.8	4.101
864.0	3.927
864.2	3.730
864.4	3.679
864.6	3.800
864.8	4.058
865.0	4.254
865.2	4.158
865.4	4.181
865.6	4.149
865.8	4.029
866.0	4.190
866.2	4.159
866.4	3.866
866.6	3.607
866.8	3.516
867.0	3.450
867.2	3.692
867.4	3.948
867.6	4.066
867.8	3.990
868.0	3.979
868.2	3.858
868.4	3.840
868.6	3.865
868.8	3.861
869.0	3.824
869.2	3.721
869.4	3.490
869.6	3.337
869.8	3.325
870.0	3.556
870.2	3.772
870.4	3.796
870.6	3.645
870.8	3.609
871.0	3.466
871.2	3.616
871.4	3.574
871.6	3.439
871.8	3.339
872.0	3.532
872.2	3.445
872.4	3.722
872.6	3.822
872.8	3.720
873.0	3.757
873.2	3.731
873.4	3.470
873.6	3.522
873.8	3.551
874.0	3.549
874.2	3.693
874.4	3.546
874.6	3.449
874.8	3.341
875.0	3.356
875.2	3.369
875.4	3.444
875.6	3.398
875.8	3.430
876.0	3.458
876.2	3.593
876.4	3.459
876.6	3.489
876.8	3.469
877.0	3.283
877.2	3.157
877.4	3.196
877.6	3.078
877.8	3.104
878.0	3.353
878.2	3.509
878.4	3.351
878.6	3.433
878.8	3.345
879.0	3.289
879.2	3.339
879.4	3.410
879.6	3.371
879.8	3.504
880.0	3.628
880.2	3.596
880.4	3.306
880.6	3.072
880.8	3.170
881.0	3.309
881.2	3.555
881.4	3.605
881.6	3.403
881.8	3.346
882.0	3.368
882.2	3.267
882.4	3.299
882.6	3.333
882.8	3.135
883.0	3.359
883.2	3.380
883.4	3.383
883.6	3.422
883.8	3.360
884.0	3.109
884.2	3.251
884.4	3.137
884.6	3.361
884.8	3.493
885.0	3.544
885.2	3.563
885.4	3.517
885.6	3.354
885.8	3.247
886.0	3.125
886.2	3.222
886.4	3.504
886.6	3.518
886.8	3.594
887.0	3.426
887.2	3.304
887.4	3.353
887.6	3.569
887.8	3.435
888.0	3.472
888.2	3.357
888.4	3.274
888.6	3.222
888.8	3.322
889.0	3.411
889.2	3.476
889.4	3.303
889.6	3.085
889.8	3.178
890.0	3.282
890.2	3.704
890.4	3.686
890.6	3.553
890.8	3.178
891.0	3.142
891.2	3.003
891.4	3.213
891.6	3.281
891.8	3.321
892.0	3.180
892.2	3.157
892.4	3.031
892.6	3.012
892.8	3.165
893.0	3.344
893.2	3.311
893.4	3.408
893.6	3.337
893.8	3.308
894.0	3.372
894.2	3.424
894.4	3.316
894.6	3.172
894.8	3.025
895.0	3.031
895.2	3.141
895.4	3.267
895.6	3.440
895.8	3.604
896.0	3.686
896.2	3.656
896.4	3.498
896.6	3.380
896.8	3.372
897.0	3.480
897.2	3.417
897.4	3.286
897.6	3.161
897.8	3.377
898.0	3.617
898.2	3.730
898.4	3.598
898.6	3.331
898.8	3.167
899.0	3.146
899.2	3.085
899.4	3.091
899.6	3.086
899.8	3.142
900.0	3.297

