Sample:	'20211010A(EM)
File name:	r-c-dots 1;X wei touxi.FDS
Run date:	'21:03:30, 03/21/2023
Operator:	Administrator
Comment:	'

Instrument
Model:	F-4700 FL Spectrophotometer
Serial number:	2019-001
ROM Version:	5J24010 00

Instrument parameters
Measurement type:	Wavelength scan
Scan mode:	Emission
Data mode:	Fluorescence
EX WL:	530.0 nm
EM  Start WL:	550.0 nm
EM  End WL:	900.0 nm
Scan speed:	1200 nm/min
Delay:	0.0 s
EX Slit:	10.0 nm
EM Slit:	10.0 nm
PMT Voltage:	660 V
Response:	0.002 s
Corrected spectra:	Off
Shutter control:	On

Processing performed
Savitsky-Golay smoothed
Smoothing order:	3
Number of points:	7
Number of times:	1

Peak integration
Integration method:	Rectangular
Sensitivity:	1
Threshold:	1.000

Peaks
No.	Start(nm)	Apex(nm)	End(nm)	Height(Data)	Valley(nm)	Valley(Data)
1	550.0	647.2	791.2	*****   	791.2	139.5
2	791.2	792.0	794.8	144.4	794.8	126.8
3	794.8	795.8	800.2	132.2	800.2	113.5
4	800.2	801.4	802.8	117.0	802.8	104.8
5	802.8	803.8	810.6	111.6	810.6	92.90
6	810.6	811.6	819.2	94.72	819.2	69.86
7	819.2	819.8	824.2	72.36	824.2	61.05
8	824.2	824.8	832.4	63.55	832.4	41.46
9	832.4	833.4	868.0	43.10	868.0	3.940
10	868.0	868.6	889.2	5.258	889.2	3.260
11	889.2	890.2	893.4	4.739	893.4	3.213

Data points
nm	Data
550.0	485.5
550.2	487.7
550.4	490.0
550.6	493.2
550.8	498.8
551.0	508.5
551.2	514.9
551.4	521.6
551.6	527.8
551.8	529.0
552.0	529.3
552.2	533.4
552.4	538.4
552.6	550.3
552.8	560.9
553.0	571.7
553.2	580.9
553.4	586.8
553.6	591.6
553.8	604.5
554.0	607.4
554.2	611.2
554.4	615.8
554.6	621.3
554.8	632.8
555.0	644.7
555.2	649.7
555.4	653.4
555.6	657.1
555.8	670.0
556.0	685.2
556.2	696.5
556.4	705.4
556.6	711.2
556.8	722.6
557.0	734.1
557.2	746.1
557.4	754.0
557.6	762.2
557.8	770.4
558.0	781.5
558.2	793.2
558.4	806.9
558.6	815.7
558.8	829.6
559.0	845.0
559.2	854.6
559.4	869.6
559.6	879.6
559.8	886.5
560.0	899.2
560.2	911.3
560.4	918.0
560.6	927.3
560.8	943.3
561.0	957.8
561.2	976.1
561.4	994.4
561.6	1007
561.8	1021
562.0	1029
562.2	1040
562.4	1057
562.6	1067
562.8	1081
563.0	1095
563.2	1110
563.4	1129
563.6	1155
563.8	1181
564.0	1205
564.2	1219
564.4	1237
564.6	1251
564.8	1267
565.0	1290
565.2	1306
565.4	1318
565.6	1333
565.8	1355
566.0	1370
566.2	1387
566.4	1411
566.6	1436
566.8	1465
567.0	1487
567.2	1501
567.4	1519
567.6	1545
567.8	1570
568.0	1599
568.2	1618
568.4	1640
568.6	1658
568.8	1681
569.0	1696
569.2	1719
569.4	1734
569.6	1755
569.8	1789
570.0	1823
570.2	1854
570.4	1885
570.6	1903
570.8	1925
571.0	1952
571.2	1981
571.4	2018
571.6	2045
571.8	2079
572.0	2096
572.2	2105
572.4	2134
572.6	2160
572.8	2176
573.0	2208
573.2	2231
573.4	2273
573.6	2314
573.8	2349
574.0	2366
574.2	2383
574.4	2410
574.6	2449
574.8	2479
575.0	2514
575.2	2543
575.4	2572
575.6	2610
575.8	2644
576.0	2669
576.2	2692
576.4	2721
576.6	2755
576.8	2797
577.0	2834
577.2	2865
577.4	2886
577.6	2903
577.8	2933
578.0	2950
578.2	2975
578.4	3011
578.6	3051
578.8	3079
579.0	3131
579.2	3157
579.4	3185
579.6	3211
579.8	3246
580.0	3270
580.2	3312
580.4	3343
580.6	3380
580.8	3421
581.0	3464
581.2	3498
581.4	3541
581.6	3564
581.8	3581
582.0	3597
582.2	3613
582.4	3642
582.6	3677
582.8	3717
583.0	3753
583.2	3784
583.4	3821
583.6	3850
583.8	3873
584.0	3901
584.2	3921
584.4	3947
584.6	3989
584.8	4022
585.0	4060
585.2	4080
585.4	4103
585.6	4133
585.8	4167
586.0	4213
586.2	4252
586.4	4288
586.6	4314
586.8	4320
587.0	4331
587.2	4354
587.4	4390
587.6	4434
587.8	4457
588.0	4480
588.2	4497
588.4	4516
588.6	4555
588.8	4577
589.0	4593
589.2	4616
589.4	4640
589.6	4667
589.8	4707
590.0	4735
590.2	4754
590.4	4776
590.6	4807
590.8	4823
591.0	4857
591.2	4884
591.4	4903
591.6	4917
591.8	4938
592.0	4944
592.2	4975
592.4	5010
592.6	5037
592.8	5060
593.0	5081
593.2	5087
593.4	5109
593.6	5134
593.8	5143
594.0	5164
594.2	5178
594.4	5183
594.6	5198
594.8	5213
595.0	5230
595.2	5259
595.4	5291
595.6	5314
595.8	5327
596.0	5339
596.2	5354
596.4	5373
596.6	5393
596.8	5414
597.0	5429
597.2	5438
597.4	5462
597.6	5489
597.8	5502
598.0	5520
598.2	5529
598.4	5532
598.6	5560
598.8	5575
599.0	5591
599.2	5601
599.4	5613
599.6	5615
599.8	5630
600.0	5632
600.2	5642
600.4	5656
600.6	5673
600.8	5667
601.0	5673
601.2	5688
601.4	5699
601.6	5731
601.8	5753
602.0	5774
602.2	5793
602.4	5815
602.6	5818
602.8	5826
603.0	5834
603.2	5847
603.4	5862
603.6	5859
603.8	5861
604.0	5868
604.2	5886
604.4	5892
604.6	5912
604.8	5918
605.0	5935
605.2	5954
605.4	5965
605.6	5967
605.8	5971
606.0	5973
606.2	5987
606.4	6007
606.6	6001
606.8	6005
607.0	6024
607.2	6033
607.4	6061
607.6	6069
607.8	6055
608.0	6065
608.2	6092
608.4	6102
608.6	6131
608.8	6143
609.0	6153
609.2	6177
609.4	6190
609.6	6198
609.8	6213
610.0	6220
610.2	6229
610.4	6255
610.6	6261
610.8	6288
611.0	6299
611.2	6278
611.4	6280
611.6	6299
611.8	6311
612.0	6343
612.2	6361
612.4	6366
612.6	6385
612.8	6396
613.0	6411
613.2	6410
613.4	6424
613.6	6448
613.8	6480
614.0	6499
614.2	6514
614.4	6525
614.6	6536
614.8	6536
615.0	6546
615.2	6542
615.4	6572
615.6	6607
615.8	6630
616.0	6649
616.2	6672
616.4	6681
616.6	6710
616.8	6719
617.0	6722
617.2	6736
617.4	6752
617.6	6771
617.8	6794
618.0	6825
618.2	6844
618.4	6879
618.6	6912
618.8	6911
619.0	6916
619.2	6942
619.4	6967
619.6	7013
619.8	7040
620.0	7046
620.2	7071
620.4	7092
620.6	7120
620.8	7137
621.0	7144
621.2	7170
621.4	7201
621.6	7221
621.8	7254
622.0	7278
622.2	7297
622.4	7327
622.6	7338
622.8	7339
623.0	7362
623.2	7395
623.4	7415
623.6	7470
623.8	7495
624.0	7505
624.2	7532
624.4	7560
624.6	7589
624.8	7646
625.0	7687
625.2	7711
625.4	7735
625.6	7756
625.8	7780
626.0	7818
626.2	7855
626.4	7887
626.6	7915
626.8	7935
627.0	7946
627.2	7969
627.4	7994
627.6	8023
627.8	8056
628.0	8089
628.2	8112
628.4	8140
628.6	8172
628.8	8179
629.0	8206
629.2	8239
629.4	8267
629.6	8307
629.8	8327
630.0	8353
630.2	8381
630.4	8431
630.6	8473
630.8	8514
631.0	8528
631.2	8555
631.4	8580
631.6	8618
631.8	8645
632.0	8680
632.2	8723
632.4	8763
632.6	8798
632.8	8806
633.0	8823
633.2	8842
633.4	8855
633.6	8880
633.8	8911
634.0	8939
634.2	8988
634.4	9016
634.6	9031
634.8	9057
635.0	9099
635.2	9121
635.4	9156
635.6	9176
635.8	9186
636.0	9215
636.2	9249
636.4	9268
636.6	9310
636.8	9341
637.0	9343
637.2	9368
637.4	9401
637.6	9433
637.8	9465
638.0	9476
638.2	9480
638.4	9488
638.6	9516
638.8	9552
639.0	9571
639.2	9600
639.4	9628
639.6	9630
639.8	9646
640.0	9674
640.2	9681
640.4	9720
640.6	9748
640.8	9747
641.0	9760
641.2	9777
641.4	9768
641.6	9800
641.8	9830
642.0	9840
642.2	9852
642.4	9869
642.6	9863
642.8	9879
643.0	9883
643.2	9898
643.4	9935
643.6	9964
643.8	9966
644.0	9958
644.2	9933
644.4	9931
644.6	9951
644.8	9968
645.0	9968
645.2	9976
645.4	9979
645.6	9986
645.8	9992
646.0	9999.9
646.2	9991
646.4	9986
646.6	9986
646.8	9990
647.0	9995
647.2	9999.9
647.4	9997
647.6	9997
647.8	9999.9
648.0	9997
648.2	9982
648.4	9973
648.6	9978
648.8	9968
649.0	9964
649.2	9967
649.4	9962
649.6	9970
649.8	9965
650.0	9957
650.2	9939
650.4	9936
650.6	9919
650.8	9901
651.0	9881
651.2	9883
651.4	9873
651.6	9876
651.8	9828
652.0	9806
652.2	9793
652.4	9780
652.6	9772
652.8	9768
653.0	9728
653.2	9727
653.4	9717
653.6	9712
653.8	9670
654.0	9641
654.2	9620
654.4	9620
654.6	9609
654.8	9605
655.0	9584
655.2	9565
655.4	9528
655.6	9495
655.8	9438
656.0	9405
656.2	9392
656.4	9375
656.6	9361
656.8	9353
657.0	9299
657.2	9266
657.4	9219
657.6	9194
657.8	9193
658.0	9186
658.2	9144
658.4	9120
658.6	9068
658.8	9042
659.0	9015
659.2	8995
659.4	8952
659.6	8941
659.8	8906
660.0	8890
660.2	8858
660.4	8818
660.6	8741
660.8	8718
661.0	8690
661.2	8667
661.4	8649
661.6	8601
661.8	8531
662.0	8501
662.2	8488
662.4	8464
662.6	8444
662.8	8407
663.0	8360
663.2	8301
663.4	8272
663.6	8249
663.8	8230
664.0	8212
664.2	8176
664.4	8128
664.6	8088
664.8	8061
665.0	8031
665.2	8002
665.4	7974
665.6	7943
665.8	7891
666.0	7855
666.2	7806
666.4	7767
666.6	7717
666.8	7670
667.0	7621
667.2	7602
667.4	7563
667.6	7552
667.8	7500
668.0	7466
668.2	7424
668.4	7409
668.6	7368
668.8	7358
669.0	7301
669.2	7258
669.4	7207
669.6	7191
669.8	7158
670.0	7126
670.2	7070
670.4	7024
670.6	6975
670.8	6941
671.0	6888
671.2	6843
671.4	6796
671.6	6760
671.8	6734
672.0	6701
672.2	6676
672.4	6646
672.6	6600
672.8	6559
673.0	6536
673.2	6512
673.4	6492
673.6	6463
673.8	6415
674.0	6371
674.2	6333
674.4	6292
674.6	6247
674.8	6224
675.0	6186
675.2	6145
675.4	6112
675.6	6072
675.8	6035
676.0	6012
676.2	5983
676.4	5945
676.6	5912
676.8	5871
677.0	5825
677.2	5798
677.4	5763
677.6	5727
677.8	5695
678.0	5670
678.2	5630
678.4	5612
678.6	5564
678.8	5523
679.0	5488
679.2	5467
679.4	5428
679.6	5408
679.8	5372
680.0	5339
680.2	5299
680.4	5270
680.6	5223
680.8	5181
681.0	5153
681.2	5129
681.4	5101
681.6	5080
681.8	5046
682.0	5029
682.2	5007
682.4	4982
682.6	4948
682.8	4923
683.0	4881
683.2	4849
683.4	4809
683.6	4776
683.8	4747
684.0	4717
684.2	4678
684.4	4643
684.6	4615
684.8	4595
685.0	4580
685.2	4554
685.4	4531
685.6	4504
685.8	4467
686.0	4433
686.2	4415
686.4	4394
686.6	4376
686.8	4337
687.0	4289
687.2	4261
687.4	4255
687.6	4226
687.8	4219
688.0	4181
688.2	4149
688.4	4140
688.6	4125
688.8	4107
689.0	4087
689.2	4065
689.4	4039
689.6	4016
689.8	3979
690.0	3957
690.2	3926
690.4	3922
690.6	3901
690.8	3881
691.0	3854
691.2	3831
691.4	3801
691.6	3780
691.8	3760
692.0	3741
692.2	3720
692.4	3693
692.6	3662
692.8	3649
693.0	3642
693.2	3634
693.4	3609
693.6	3578
693.8	3556
694.0	3538
694.2	3518
694.4	3499
694.6	3473
694.8	3456
695.0	3440
695.2	3422
695.4	3407
695.6	3397
695.8	3377
696.0	3362
696.2	3338
696.4	3325
696.6	3302
696.8	3284
697.0	3255
697.2	3237
697.4	3224
697.6	3225
697.8	3214
698.0	3202
698.2	3184
698.4	3155
698.6	3133
698.8	3124
699.0	3118
699.2	3110
699.4	3094
699.6	3063
699.8	3036
700.0	3019
700.2	3015
700.4	3013
700.6	3007
700.8	2990
701.0	2972
701.2	2949
701.4	2934
701.6	2909
701.8	2897
702.0	2889
702.2	2883
702.4	2866
702.6	2847
702.8	2822
703.0	2808
703.2	2803
703.4	2800
703.6	2793
703.8	2774
704.0	2757
704.2	2731
704.4	2716
704.6	2701
704.8	2702
705.0	2691
705.2	2681
705.4	2662
705.6	2641
705.8	2618
706.0	2605
706.2	2583
706.4	2569
706.6	2559
706.8	2547
707.0	2532
707.2	2524
707.4	2511
707.6	2504
707.8	2489
708.0	2470
708.2	2447
708.4	2432
708.6	2416
708.8	2415
709.0	2408
709.2	2404
709.4	2396
709.6	2384
709.8	2371
710.0	2362
710.2	2338
710.4	2319
710.6	2302
710.8	2286
711.0	2276
711.2	2259
711.4	2247
711.6	2231
711.8	2226
712.0	2215
712.2	2206
712.4	2195
712.6	2182
712.8	2157
713.0	2147
713.2	2127
713.4	2117
713.6	2112
713.8	2099
714.0	2089
714.2	2079
714.4	2061
714.6	2047
714.8	2032
715.0	2018
715.2	2012
715.4	1993
715.6	1982
715.8	1972
716.0	1954
716.2	1937
716.4	1933
716.6	1922
716.8	1909
717.0	1900
717.2	1882
717.4	1867
717.6	1862
717.8	1853
718.0	1836
718.2	1820
718.4	1798
718.6	1783
718.8	1778
719.0	1765
719.2	1754
719.4	1740
719.6	1733
719.8	1727
720.0	1726
720.2	1713
720.4	1704
720.6	1683
720.8	1669
721.0	1653
721.2	1643
721.4	1635
721.6	1629
721.8	1619
722.0	1605
722.2	1593
722.4	1586
722.6	1579
722.8	1570
723.0	1562
723.2	1549
723.4	1539
723.6	1523
723.8	1516
724.0	1503
724.2	1490
724.4	1484
724.6	1476
724.8	1461
725.0	1451
725.2	1430
725.4	1418
725.6	1409
725.8	1402
726.0	1397
726.2	1383
726.4	1365
726.6	1353
726.8	1347
727.0	1340
727.2	1345
727.4	1337
727.6	1321
727.8	1307
728.0	1296
728.2	1279
728.4	1275
728.6	1263
728.8	1259
729.0	1252
729.2	1244
729.4	1232
729.6	1227
729.8	1211
730.0	1210
730.2	1198
730.4	1187
730.6	1174
730.8	1172
731.0	1161
731.2	1158
731.4	1151
731.6	1142
731.8	1133
732.0	1129
732.2	1114
732.4	1105
732.6	1097
732.8	1089
733.0	1076
733.2	1065
733.4	1050
733.6	1045
733.8	1047
734.0	1049
734.2	1044
734.4	1035
734.6	1021
734.8	1009
735.0	1000
735.2	992.5
735.4	985.3
735.6	975.9
735.8	966.0
736.0	956.0
736.2	946.1
736.4	938.1
736.6	935.5
736.8	933.7
737.0	928.0
737.2	922.6
737.4	913.4
737.6	903.8
737.8	895.8
738.0	890.3
738.2	884.6
738.4	879.2
738.6	876.8
738.8	866.9
739.0	857.9
739.2	849.4
739.4	844.6
739.6	841.8
739.8	838.1
740.0	824.4
740.2	813.4
740.4	805.8
740.6	796.2
740.8	792.9
741.0	789.0
741.2	787.8
741.4	786.8
741.6	785.1
741.8	778.6
742.0	773.0
742.2	760.1
742.4	752.6
742.6	745.9
742.8	740.2
743.0	738.1
743.2	732.7
743.4	727.6
743.6	724.4
743.8	717.5
744.0	714.0
744.2	707.0
744.4	697.3
744.6	689.1
744.8	680.1
745.0	673.0
745.2	673.9
745.4	672.2
745.6	673.1
745.8	666.6
746.0	661.2
746.2	657.7
746.4	653.0
746.6	643.7
746.8	640.4
747.0	633.4
747.2	629.4
747.4	625.2
747.6	621.0
747.8	611.2
748.0	606.6
748.2	599.1
748.4	595.5
748.6	591.1
748.8	589.4
749.0	582.4
749.2	577.8
749.4	571.8
749.6	568.6
749.8	565.0
750.0	564.2
750.2	561.3
750.4	556.5
750.6	556.3
750.8	552.4
751.0	548.5
751.2	548.4
751.4	543.8
751.6	535.5
751.8	535.8
752.0	528.7
752.2	522.7
752.4	520.0
752.6	517.1
752.8	510.9
753.0	506.5
753.2	502.2
753.4	499.8
753.6	498.7
753.8	498.1
754.0	494.9
754.2	490.7
754.4	485.9
754.6	483.8
754.8	479.5
755.0	475.6
755.2	471.5
755.4	465.9
755.6	458.6
755.8	458.6
756.0	457.7
756.2	457.2
756.4	451.9
756.6	442.9
756.8	439.2
757.0	436.1
757.2	432.7
757.4	429.8
757.6	426.5
757.8	424.9
758.0	426.1
758.2	424.6
758.4	419.6
758.6	417.6
758.8	410.2
759.0	404.9
759.2	398.3
759.4	396.2
759.6	393.7
759.8	396.9
760.0	392.7
760.2	390.8
760.4	387.5
760.6	387.7
760.8	381.6
761.0	378.6
761.2	372.6
761.4	367.8
761.6	367.1
761.8	366.9
762.0	365.1
762.2	362.9
762.4	359.2
762.6	353.4
762.8	352.2
763.0	347.6
763.2	346.7
763.4	345.3
763.6	341.5
763.8	334.8
764.0	329.7
764.2	326.0
764.4	327.0
764.6	330.9
764.8	327.9
765.0	325.9
765.2	322.6
765.4	319.3
765.6	318.9
765.8	319.1
766.0	318.7
766.2	317.6
766.4	314.6
766.6	309.3
766.8	306.8
767.0	300.9
767.2	299.6
767.4	294.5
767.6	291.7
767.8	290.3
768.0	291.6
768.2	289.7
768.4	288.3
768.6	285.8
768.8	284.4
769.0	282.6
769.2	280.2
769.4	278.0
769.6	273.8
769.8	268.8
770.0	266.4
770.2	266.2
770.4	263.5
770.6	260.3
770.8	256.3
771.0	254.7
771.2	255.8
771.4	257.5
771.6	258.4
771.8	259.2
772.0	254.8
772.2	251.5
772.4	246.0
772.6	243.1
772.8	242.0
773.0	242.8
773.2	242.6
773.4	243.8
773.6	240.1
773.8	238.1
774.0	236.7
774.2	231.5
774.4	227.7
774.6	225.3
774.8	222.0
775.0	220.8
775.2	223.5
775.4	221.7
775.6	221.2
775.8	220.5
776.0	222.5
776.2	221.5
776.4	216.9
776.6	212.7
776.8	209.5
777.0	209.0
777.2	208.3
777.4	208.5
777.6	206.6
777.8	205.4
778.0	202.2
778.2	203.8
778.4	200.4
778.6	199.4
778.8	199.9
779.0	198.8
779.2	194.9
779.4	195.6
779.6	193.1
779.8	189.7
780.0	192.5
780.2	191.1
780.4	189.9
780.6	188.6
780.8	183.5
781.0	179.9
781.2	181.8
781.4	182.3
781.6	182.4
781.8	185.6
782.0	184.2
782.2	184.0
782.4	181.1
782.6	177.4
782.8	172.5
783.0	171.6
783.2	170.5
783.4	171.9
783.6	172.0
783.8	169.2
784.0	167.7
784.2	166.3
784.4	166.8
784.6	166.5
784.8	166.9
785.0	166.2
785.2	165.9
785.4	166.5
785.6	166.7
785.8	164.3
786.0	163.6
786.2	163.6
786.4	163.4
786.6	161.3
786.8	161.4
787.0	159.9
787.2	158.1
787.4	156.6
787.6	155.7
787.8	154.5
788.0	152.5
788.2	151.6
788.4	150.7
788.6	152.3
788.8	153.8
789.0	154.0
789.2	151.9
789.4	149.7
789.6	146.5
789.8	145.0
790.0	144.1
790.2	143.3
790.4	143.3
790.6	141.5
790.8	140.9
791.0	139.7
791.2	139.5
791.4	140.7
791.6	142.7
791.8	143.3
792.0	144.4
792.2	141.4
792.4	138.0
792.6	136.4
792.8	139.1
793.0	136.7
793.2	136.8
793.4	134.5
793.6	133.9
793.8	134.2
794.0	137.6
794.2	134.0
794.4	130.1
794.6	127.6
794.8	126.8
795.0	127.7
795.2	130.8
795.4	132.1
795.6	130.9
795.8	132.2
796.0	129.9
796.2	130.8
796.4	130.8
796.6	130.2
796.8	128.8
797.0	128.3
797.2	126.3
797.4	126.7
797.6	125.3
797.8	122.3
798.0	120.3
798.2	119.9
798.4	120.9
798.6	122.4
798.8	121.4
799.0	120.6
799.2	120.5
799.4	119.6
799.6	119.6
799.8	117.4
800.0	114.3
800.2	113.5
800.4	114.4
800.6	114.8
800.8	116.3
801.0	116.9
801.2	116.4
801.4	117.0
801.6	116.1
801.8	116.3
802.0	115.0
802.2	113.4
802.4	110.8
802.6	108.6
802.8	104.8
803.0	107.4
803.2	108.5
803.4	109.1
803.6	111.6
803.8	111.6
804.0	110.2
804.2	111.2
804.4	110.7
804.6	108.6
804.8	109.0
805.0	109.4
805.2	108.8
805.4	107.8
805.6	107.8
805.8	107.4
806.0	106.3
806.2	105.0
806.4	103.2
806.6	101.6
806.8	101.0
807.0	101.3
807.2	99.28
807.4	98.03
807.6	97.01
807.8	97.25
808.0	97.23
808.2	97.23
808.4	97.85
808.6	96.79
808.8	96.38
809.0	96.66
809.2	96.34
809.4	96.52
809.6	96.99
809.8	94.69
810.0	94.74
810.2	93.63
810.4	94.27
810.6	92.90
810.8	93.26
811.0	93.63
811.2	93.82
811.4	93.81
811.6	94.72
811.8	93.79
812.0	94.08
812.2	92.21
812.4	90.55
812.6	90.79
812.8	91.57
813.0	92.25
813.2	88.52
813.4	85.54
813.6	84.23
813.8	84.75
814.0	86.50
814.2	86.46
814.4	83.87
814.6	83.97
814.8	83.14
815.0	82.66
815.2	84.88
815.4	84.17
815.6	83.75
815.8	82.80
816.0	81.72
816.2	80.03
816.4	80.14
816.6	78.53
816.8	78.21
817.0	77.86
817.2	78.85
817.4	79.55
817.6	78.62
817.8	77.75
818.0	77.78
818.2	77.61
818.4	77.44
818.6	76.69
818.8	73.45
819.0	71.24
819.2	69.86
819.4	70.22
819.6	71.27
819.8	72.36
820.0	72.03
820.2	72.01
820.4	70.88
820.6	70.64
820.8	70.37
821.0	70.09
821.2	70.10
821.4	70.80
821.6	69.86
821.8	69.24
822.0	67.79
822.2	67.07
822.4	66.72
822.6	67.74
822.8	66.44
823.0	66.10
823.2	64.13
823.4	63.76
823.6	61.40
823.8	61.56
824.0	61.65
824.2	61.05
824.4	62.39
824.6	63.45
824.8	63.55
825.0	63.20
825.2	62.75
825.4	61.16
825.6	61.27
825.8	61.09
826.0	62.57
826.2	61.40
826.4	60.50
826.6	59.40
826.8	57.76
827.0	56.97
827.2	57.72
827.4	55.57
827.6	54.69
827.8	54.49
828.0	53.19
828.2	52.35
828.4	52.41
828.6	50.09
828.8	49.72
829.0	50.47
829.2	49.76
829.4	49.04
829.6	49.39
829.8	48.74
830.0	49.31
830.2	49.49
830.4	49.14
830.6	47.67
830.8	46.30
831.0	44.94
831.2	45.42
831.4	45.44
831.6	45.05
831.8	43.68
832.0	42.09
832.2	41.62
832.4	41.46
832.6	41.83
832.8	41.84
833.0	42.07
833.2	42.32
833.4	43.10
833.6	41.60
833.8	40.95
834.0	39.45
834.2	37.22
834.4	36.58
834.6	37.50
834.8	37.04
835.0	36.98
835.2	36.86
835.4	34.72
835.6	33.56
835.8	34.38
836.0	34.14
836.2	33.31
836.4	33.14
836.6	32.29
836.8	32.11
837.0	32.75
837.2	32.74
837.4	31.57
837.6	30.27
837.8	30.11
838.0	30.53
838.2	29.70
838.4	28.56
838.6	26.88
838.8	26.24
839.0	27.17
839.2	26.89
839.4	26.83
839.6	26.10
839.8	26.05
840.0	25.89
840.2	25.82
840.4	25.52
840.6	25.88
840.8	25.33
841.0	25.21
841.2	23.63
841.4	22.40
841.6	22.31
841.8	22.26
842.0	22.16
842.2	21.37
842.4	20.61
842.6	20.83
842.8	20.86
843.0	21.08
843.2	20.95
843.4	20.39
843.6	20.36
843.8	20.59
844.0	20.39
844.2	19.39
844.4	18.39
844.6	17.78
844.8	17.94
845.0	17.65
845.2	17.82
845.4	17.65
845.6	17.52
845.8	17.24
846.0	18.18
846.2	17.70
846.4	17.34
846.6	16.89
846.8	16.13
847.0	14.82
847.2	14.72
847.4	14.46
847.6	14.31
847.8	14.09
848.0	14.73
848.2	14.94
848.4	14.89
848.6	14.43
848.8	13.43
849.0	12.53
849.2	12.06
849.4	12.28
849.6	12.42
849.8	12.56
850.0	11.86
850.2	12.48
850.4	12.25
850.6	11.99
850.8	12.02
851.0	11.96
851.2	10.65
851.4	11.10
851.6	10.98
851.8	10.78
852.0	10.24
852.2	10.08
852.4	9.668
852.6	10.02
852.8	10.21
853.0	10.10
853.2	9.708
853.4	9.305
853.6	9.004
853.8	9.063
854.0	9.272
854.2	9.140
854.4	9.620
854.6	9.325
854.8	9.084
855.0	8.850
855.2	8.942
855.4	8.977
855.6	8.727
855.8	8.483
856.0	7.767
856.2	7.227
856.4	6.905
856.6	7.172
856.8	7.112
857.0	7.192
857.2	7.015
857.4	6.869
857.6	6.578
857.8	6.689
858.0	6.608
858.2	6.469
858.4	6.555
858.6	6.444
858.8	6.883
859.0	6.787
859.2	7.156
859.4	6.841
859.6	6.372
859.8	6.255
860.0	6.345
860.2	6.030
860.4	6.288
860.6	5.988
860.8	6.095
861.0	6.497
861.2	6.497
861.4	6.316
861.6	6.277
861.8	6.352
862.0	6.324
862.2	6.632
862.4	6.656
862.6	6.046
862.8	5.751
863.0	5.413
863.2	4.878
863.4	4.997
863.6	4.979
863.8	4.652
864.0	4.517
864.2	4.522
864.4	4.750
864.6	4.833
864.8	4.433
865.0	4.445
865.2	4.268
865.4	4.297
865.6	4.731
865.8	4.783
866.0	4.639
866.2	5.050
866.4	4.836
866.6	4.560
866.8	4.377
867.0	4.295
867.2	4.408
867.4	4.708
867.6	4.719
867.8	4.248
868.0	3.940
868.2	4.332
868.4	4.941
868.6	5.258
868.8	5.225
869.0	4.933
869.2	4.448
869.4	4.665
869.6	4.818
869.8	4.508
870.0	3.867
870.2	4.043
870.4	3.931
870.6	4.175
870.8	4.668
871.0	4.382
871.2	4.406
871.4	4.715
871.6	4.435
871.8	4.423
872.0	4.784
872.2	4.424
872.4	4.792
872.6	4.577
872.8	4.098
873.0	4.095
873.2	4.217
873.4	4.165
873.6	4.168
873.8	4.095
874.0	3.914
874.2	4.073
874.4	4.133
874.6	4.197
874.8	4.063
875.0	4.221
875.2	3.847
875.4	3.914
875.6	4.078
875.8	4.257
876.0	4.255
876.2	4.455
876.4	4.077
876.6	3.844
876.8	3.804
877.0	3.766
877.2	3.672
877.4	3.740
877.6	3.827
877.8	3.796
878.0	3.746
878.2	3.972
878.4	4.063
878.6	4.059
878.8	3.985
879.0	3.931
879.2	3.925
879.4	4.131
879.6	4.171
879.8	4.214
880.0	4.055
880.2	3.860
880.4	4.131
880.6	4.493
880.8	4.485
881.0	4.433
881.2	4.187
881.4	3.809
881.6	3.961
881.8	4.111
882.0	3.866
882.2	3.851
882.4	3.612
882.6	3.299
882.8	3.478
883.0	3.633
883.2	3.772
883.4	3.922
883.6	3.807
883.8	3.767
884.0	3.694
884.2	3.837
884.4	4.044
884.6	3.906
884.8	4.108
885.0	4.278
885.2	3.929
885.4	3.921
885.6	3.946
885.8	3.996
886.0	4.190
886.2	3.948
886.4	3.636
886.6	3.361
886.8	3.618
887.0	4.057
887.2	4.206
887.4	3.957
887.6	3.829
887.8	3.481
888.0	3.545
888.2	3.932
888.4	4.217
888.6	4.133
888.8	4.007
889.0	3.782
889.2	3.260
889.4	3.379
889.6	3.693
889.8	4.018
890.0	4.336
890.2	4.739
890.4	4.636
890.6	4.493
890.8	4.269
891.0	3.888
891.2	3.812
891.4	3.599
891.6	3.896
891.8	3.989
892.0	4.028
892.2	3.986
892.4	4.379
892.6	4.214
892.8	4.085
893.0	3.672
893.2	3.483
893.4	3.213
893.6	3.707
893.8	3.736
894.0	3.659
894.2	3.694
894.4	4.060
894.6	4.151
894.8	4.339
895.0	3.894
895.2	3.844
895.4	3.739
895.6	3.908
895.8	4.287
896.0	4.162
896.2	3.697
896.4	3.689
896.6	3.765
896.8	3.873
897.0	4.059
897.2	3.981
897.4	3.963
897.6	3.963
897.8	4.023
898.0	3.899
898.2	3.921
898.4	4.044
898.6	4.095
898.8	3.814
899.0	3.797
899.2	3.810
899.4	3.787
899.6	3.879
899.8	3.977
900.0	4.048

