Sample:	'20211010A(EM)
File name:	R-CDs 7 700uM.FDS
Run date:	'16:08:19, 06/09/2023
Operator:	Administrator
Comment:	'

Instrument
Model:	F-4700 FL Spectrophotometer
Serial number:	2019-001
ROM Version:	5J24010 00

Instrument parameters
Measurement type:	Wavelength scan
Scan mode:	Emission
Data mode:	Fluorescence
EX WL:	520.0 nm
EM  Start WL:	540.0 nm
EM  End WL:	800.0 nm
Scan speed:	1200 nm/min
Delay:	0.0 s
EX Slit:	10.0 nm
EM Slit:	10.0 nm
PMT Voltage:	615 V
Response:	0.002 s
Corrected spectra:	Off
Shutter control:	On

Processing performed
Savitsky-Golay smoothed
Smoothing order:	3
Number of points:	7
Number of times:	1

Peak integration
Integration method:	Rectangular
Sensitivity:	1
Threshold:	1.000

Peaks
No.	Start(nm)	Apex(nm)	End(nm)	Height(Data)	Valley(nm)	Valley(Data)
1	540.0	595.4	596.2	1806	596.2	1783
2	596.2	600.6	601.8	1878	601.8	1856
3	601.8	603.8	604.4	1901	604.4	1883
4	604.4	608.0	609.4	1919	609.4	1904
5	609.4	610.4	611.8	1925	611.8	1900
6	611.8	612.4	613.0	1936	613.0	1906
7	613.0	614.4	616.4	1924	616.4	1889
8	616.4	616.8	617.8	1897	617.8	1878
9	617.8	618.6	720.4	1898	720.4	175.9
10	720.4	721.2	727.0	182.0	727.0	142.6
11	727.0	727.8	739.2	148.3	739.2	92.59
12	739.2	740.0	745.6	97.19	745.6	76.72
13	745.6	746.4	750.0	79.10	750.0	63.43
14	750.0	751.4	752.2	65.79	752.2	60.92
15	752.2	752.8	767.6	63.57	767.6	34.63
16	767.6	769.2	774.8	36.34	774.8	28.41
17	774.8	775.8	779.0	30.28	779.0	24.77
18	779.0	779.8	786.2	26.29	786.2	19.93
19	786.2	787.2	790.0	22.25	790.0	18.67
20	790.0	790.6	794.2	20.68	794.2	17.98
21	794.2	794.8	796.4	20.30	796.4	16.83
22	796.4	797.4	798.4	19.01	798.4	15.72

Data points
nm	Data
540.0	215.5
540.2	213.5
540.4	214.0
540.6	215.7
540.8	216.8
541.0	215.1
541.2	214.7
541.4	216.3
541.6	217.5
541.8	220.5
542.0	222.0
542.2	222.6
542.4	224.6
542.6	228.7
542.8	229.0
543.0	232.5
543.2	235.1
543.4	233.9
543.6	231.7
543.8	232.5
544.0	231.2
544.2	232.4
544.4	238.8
544.6	240.9
544.8	242.2
545.0	243.4
545.2	243.9
545.4	247.0
545.6	252.7
545.8	255.4
546.0	257.7
546.2	256.8
546.4	258.1
546.6	260.9
546.8	263.3
547.0	265.3
547.2	265.9
547.4	263.5
547.6	266.2
547.8	271.2
548.0	273.3
548.2	277.0
548.4	278.0
548.6	278.4
548.8	283.2
549.0	285.9
549.2	282.4
549.4	283.1
549.6	287.3
549.8	291.3
550.0	297.8
550.2	302.7
550.4	303.5
550.6	307.2
550.8	310.4
551.0	310.0
551.2	309.8
551.4	311.7
551.6	312.3
551.8	318.2
552.0	320.6
552.2	325.0
552.4	325.4
552.6	324.3
552.8	325.6
553.0	333.7
553.2	339.9
553.4	348.6
553.6	350.0
553.8	347.8
554.0	346.7
554.2	351.9
554.4	357.4
554.6	362.9
554.8	366.0
555.0	366.1
555.2	367.0
555.4	371.7
555.6	378.9
555.8	384.7
556.0	388.2
556.2	387.7
556.4	387.6
556.6	389.5
556.8	397.2
557.0	403.9
557.2	413.3
557.4	418.9
557.6	418.4
557.8	421.9
558.0	426.1
558.2	429.2
558.4	434.8
558.6	440.1
558.8	443.1
559.0	451.9
559.2	458.5
559.4	466.6
559.6	470.1
559.8	472.4
560.0	474.4
560.2	478.8
560.4	486.7
560.6	494.8
560.8	497.0
561.0	500.1
561.2	502.7
561.4	511.0
561.6	519.7
561.8	524.6
562.0	527.8
562.2	537.8
562.4	545.5
562.6	555.2
562.8	561.4
563.0	564.0
563.2	563.2
563.4	566.3
563.6	573.5
563.8	586.1
564.0	600.3
564.2	608.4
564.4	613.2
564.6	617.1
564.8	622.2
565.0	628.7
565.2	636.3
565.4	641.6
565.6	652.0
565.8	660.0
566.0	666.5
566.2	673.6
566.4	679.0
566.6	689.8
566.8	700.1
567.0	707.6
567.2	716.3
567.4	724.5
567.6	729.7
567.8	741.7
568.0	747.8
568.2	756.7
568.4	767.3
568.6	775.5
568.8	783.4
569.0	789.7
569.2	795.9
569.4	804.3
569.6	816.9
569.8	828.3
570.0	841.6
570.2	853.2
570.4	863.1
570.6	869.6
570.8	880.7
571.0	886.1
571.2	891.6
571.4	900.2
571.6	910.2
571.8	924.0
572.0	937.4
572.2	946.7
572.4	952.6
572.6	953.6
572.8	959.0
573.0	973.6
573.2	984.4
573.4	995.1
573.6	1008
573.8	1017
574.0	1026
574.2	1046
574.4	1054
574.6	1066
574.8	1079
575.0	1089
575.2	1098
575.4	1100
575.6	1100
575.8	1114
576.0	1126
576.2	1138
576.4	1151
576.6	1155
576.8	1167
577.0	1183
577.2	1192
577.4	1200
577.6	1204
577.8	1211
578.0	1217
578.2	1225
578.4	1239
578.6	1250
578.8	1262
579.0	1268
579.2	1268
579.4	1276
579.6	1290
579.8	1303
580.0	1318
580.2	1322
580.4	1325
580.6	1336
580.8	1339
581.0	1349
581.2	1360
581.4	1367
581.6	1370
581.8	1377
582.0	1382
582.2	1398
582.4	1412
582.6	1426
582.8	1424
583.0	1437
583.2	1442
583.4	1448
583.6	1451
583.8	1455
584.0	1454
584.2	1467
584.4	1470
584.6	1475
584.8	1494
585.0	1503
585.2	1518
585.4	1527
585.6	1528
585.8	1532
586.0	1536
586.2	1534
586.4	1545
586.6	1554
586.8	1561
587.0	1576
587.2	1583
587.4	1589
587.6	1599
587.8	1598
588.0	1596
588.2	1597
588.4	1603
588.6	1609
588.8	1619
589.0	1627
589.2	1641
589.4	1647
589.6	1654
589.8	1649
590.0	1647
590.2	1647
590.4	1656
590.6	1662
590.8	1680
591.0	1682
591.2	1689
591.4	1688
591.6	1695
591.8	1692
592.0	1696
592.2	1697
592.4	1708
592.6	1713
592.8	1729
593.0	1736
593.2	1735
593.4	1743
593.6	1748
593.8	1743
594.0	1750
594.2	1751
594.4	1751
594.6	1758
594.8	1766
595.0	1772
595.2	1797
595.4	1806
595.6	1800
595.8	1793
596.0	1786
596.2	1783
596.4	1797
596.6	1805
596.8	1800
597.0	1806
597.2	1811
597.4	1815
597.6	1820
597.8	1825
598.0	1820
598.2	1816
598.4	1820
598.6	1830
598.8	1838
599.0	1844
599.2	1840
599.4	1840
599.6	1846
599.8	1847
600.0	1852
600.2	1863
600.4	1872
600.6	1878
600.8	1878
601.0	1871
601.2	1868
601.4	1865
601.6	1862
601.8	1856
602.0	1865
602.2	1874
602.4	1880
602.6	1881
602.8	1883
603.0	1880
603.2	1884
603.4	1900
603.6	1897
603.8	1901
604.0	1898
604.2	1883
604.4	1883
604.6	1894
604.8	1894
605.0	1902
605.2	1905
605.4	1899
605.6	1907
605.8	1908
606.0	1915
606.2	1912
606.4	1915
606.6	1910
606.8	1905
607.0	1912
607.2	1915
607.4	1914
607.6	1918
607.8	1918
608.0	1919
608.2	1916
608.4	1907
608.6	1909
608.8	1908
609.0	1905
609.2	1907
609.4	1904
609.6	1907
609.8	1916
610.0	1922
610.2	1921
610.4	1925
610.6	1919
610.8	1925
611.0	1915
611.2	1914
611.4	1905
611.6	1908
611.8	1900
612.0	1918
612.2	1923
612.4	1936
612.6	1933
612.8	1924
613.0	1906
613.2	1907
613.4	1909
613.6	1911
613.8	1912
614.0	1911
614.2	1915
614.4	1924
614.6	1921
614.8	1908
615.0	1897
615.2	1890
615.4	1891
615.6	1895
615.8	1893
616.0	1892
616.2	1890
616.4	1889
616.6	1891
616.8	1897
617.0	1896
617.2	1891
617.4	1885
617.6	1879
617.8	1878
618.0	1883
618.2	1896
618.4	1896
618.6	1898
618.8	1879
619.0	1862
619.2	1855
619.4	1865
619.6	1873
619.8	1875
620.0	1866
620.2	1859
620.4	1853
620.6	1855
620.8	1856
621.0	1848
621.2	1848
621.4	1849
621.6	1845
621.8	1842
622.0	1838
622.2	1837
622.4	1833
622.6	1825
622.8	1822
623.0	1821
623.2	1822
623.4	1827
623.6	1820
623.8	1815
624.0	1813
624.2	1813
624.4	1809
624.6	1809
624.8	1799
625.0	1798
625.2	1794
625.4	1795
625.6	1798
625.8	1795
626.0	1789
626.2	1781
626.4	1771
626.6	1770
626.8	1769
627.0	1761
627.2	1761
627.4	1757
627.6	1751
627.8	1749
628.0	1748
628.2	1749
628.4	1756
628.6	1750
628.8	1744
629.0	1733
629.2	1723
629.4	1717
629.6	1721
629.8	1713
630.0	1712
630.2	1711
630.4	1707
630.6	1702
630.8	1700
631.0	1687
631.2	1680
631.4	1681
631.6	1681
631.8	1680
632.0	1681
632.2	1679
632.4	1670
632.6	1660
632.8	1656
633.0	1647
633.2	1647
633.4	1650
633.6	1647
633.8	1642
634.0	1635
634.2	1627
634.4	1620
634.6	1613
634.8	1610
635.0	1609
635.2	1603
635.4	1602
635.6	1604
635.8	1593
636.0	1579
636.2	1571
636.4	1568
636.6	1567
636.8	1572
637.0	1569
637.2	1556
637.4	1553
637.6	1552
637.8	1545
638.0	1540
638.2	1532
638.4	1522
638.6	1521
638.8	1518
639.0	1510
639.2	1500
639.4	1499
639.6	1499
639.8	1495
640.0	1497
640.2	1494
640.4	1484
640.6	1486
640.8	1476
641.0	1469
641.2	1465
641.4	1461
641.6	1451
641.8	1449
642.0	1444
642.2	1439
642.4	1432
642.6	1426
642.8	1424
643.0	1422
643.2	1424
643.4	1414
643.6	1403
643.8	1391
644.0	1389
644.2	1381
644.4	1372
644.6	1368
644.8	1363
645.0	1360
645.2	1359
645.4	1353
645.6	1342
645.8	1335
646.0	1331
646.2	1326
646.4	1323
646.6	1318
646.8	1319
647.0	1312
647.2	1305
647.4	1299
647.6	1293
647.8	1288
648.0	1285
648.2	1282
648.4	1277
648.6	1272
648.8	1273
649.0	1271
649.2	1268
649.4	1262
649.6	1257
649.8	1240
650.0	1233
650.2	1227
650.4	1220
650.6	1214
650.8	1213
651.0	1210
651.2	1209
651.4	1211
651.6	1203
651.8	1190
652.0	1181
652.2	1174
652.4	1169
652.6	1170
652.8	1167
653.0	1166
653.2	1161
653.4	1154
653.6	1146
653.8	1141
654.0	1132
654.2	1131
654.4	1124
654.6	1121
654.8	1113
655.0	1109
655.2	1102
655.4	1096
655.6	1086
655.8	1084
656.0	1078
656.2	1080
656.4	1079
656.6	1073
656.8	1065
657.0	1057
657.2	1051
657.4	1051
657.6	1045
657.8	1040
658.0	1042
658.2	1036
658.4	1026
658.6	1019
658.8	1009
659.0	998.2
659.2	999.9
659.4	1001
659.6	997.1
659.8	994.4
660.0	990.7
660.2	975.6
660.4	972.5
660.6	966.0
660.8	965.6
661.0	960.0
661.2	959.9
661.4	950.0
661.6	946.2
661.8	938.8
662.0	934.5
662.2	931.3
662.4	932.8
662.6	928.1
662.8	925.9
663.0	918.7
663.2	910.2
663.4	904.4
663.6	900.4
663.8	891.0
664.0	884.1
664.2	882.4
664.4	885.6
664.6	887.5
664.8	887.8
665.0	878.8
665.2	865.2
665.4	854.8
665.6	848.9
665.8	845.7
666.0	848.1
666.2	847.1
666.4	843.2
666.6	838.7
666.8	835.0
667.0	829.7
667.2	822.8
667.4	816.6
667.6	811.0
667.8	807.4
668.0	803.7
668.2	795.4
668.4	787.9
668.6	791.3
668.8	792.2
669.0	784.6
669.2	783.0
669.4	773.9
669.6	765.8
669.8	773.2
670.0	776.0
670.2	770.4
670.4	766.2
670.6	755.6
670.8	740.4
671.0	739.8
671.2	736.1
671.4	733.1
671.6	730.5
671.8	722.1
672.0	714.1
672.2	710.7
672.4	710.1
672.6	711.0
672.8	710.1
673.0	704.6
673.2	705.2
673.4	699.5
673.6	698.6
673.8	694.9
674.0	685.3
674.2	683.5
674.4	681.8
674.6	679.2
674.8	676.4
675.0	671.2
675.2	661.5
675.4	660.4
675.6	655.1
675.8	652.0
676.0	648.8
676.2	642.0
676.4	639.4
676.6	639.0
676.8	635.9
677.0	634.8
677.2	635.3
677.4	628.8
677.6	625.7
677.8	621.5
678.0	615.2
678.2	612.7
678.4	610.5
678.6	606.0
678.8	601.0
679.0	598.2
679.2	593.4
679.4	589.3
679.6	586.4
679.8	586.1
680.0	583.5
680.2	579.3
680.4	574.5
680.6	568.3
680.8	562.7
681.0	561.8
681.2	557.3
681.4	555.1
681.6	554.3
681.8	547.5
682.0	545.3
682.2	544.6
682.4	545.6
682.6	541.8
682.8	540.6
683.0	531.5
683.2	530.6
683.4	522.9
683.6	525.2
683.8	521.2
684.0	520.3
684.2	515.0
684.4	512.0
684.6	503.5
684.8	502.1
685.0	503.6
685.2	501.7
685.4	500.2
685.6	497.9
685.8	495.1
686.0	491.6
686.2	488.8
686.4	482.7
686.6	479.0
686.8	475.0
687.0	471.3
687.2	464.6
687.4	460.6
687.6	460.3
687.8	461.4
688.0	461.0
688.2	460.7
688.4	457.3
688.6	457.8
688.8	455.7
689.0	450.1
689.2	444.9
689.4	438.0
689.6	433.1
689.8	433.3
690.0	436.8
690.2	439.7
690.4	441.3
690.6	437.0
690.8	430.5
691.0	421.9
691.2	417.0
691.4	414.9
691.6	412.7
691.8	414.7
692.0	414.6
692.2	413.4
692.4	407.3
692.6	407.4
692.8	406.2
693.0	404.1
693.2	398.1
693.4	394.0
693.6	390.3
693.8	390.8
694.0	393.8
694.2	392.2
694.4	386.3
694.6	386.5
694.8	388.3
695.0	383.1
695.2	383.1
695.4	379.4
695.6	371.1
695.8	372.1
696.0	371.6
696.2	366.9
696.4	366.6
696.6	363.0
696.8	360.9
697.0	362.1
697.2	363.9
697.4	359.4
697.6	354.1
697.8	347.3
698.0	345.6
698.2	347.3
698.4	350.7
698.6	350.1
698.8	346.7
699.0	344.9
699.2	342.7
699.4	341.9
699.6	339.9
699.8	341.3
700.0	339.2
700.2	337.6
700.4	335.8
700.6	334.9
700.8	333.1
701.0	333.9
701.2	328.7
701.4	319.9
701.6	317.6
701.8	320.9
702.0	319.6
702.2	318.9
702.4	314.4
702.6	311.7
702.8	313.4
703.0	313.8
703.2	311.0
703.4	307.0
703.6	301.4
703.8	300.1
704.0	297.0
704.2	296.3
704.4	297.3
704.6	300.8
704.8	300.3
705.0	299.3
705.2	293.0
705.4	293.1
705.6	288.4
705.8	290.5
706.0	291.1
706.2	291.6
706.4	287.6
706.6	285.2
706.8	279.1
707.0	279.4
707.2	277.0
707.4	277.7
707.6	277.4
707.8	271.2
708.0	266.9
708.2	265.0
708.4	262.0
708.6	261.8
708.8	262.1
709.0	259.7
709.2	257.6
709.4	255.5
709.6	255.4
709.8	254.3
710.0	255.8
710.2	255.7
710.4	253.1
710.6	252.8
710.8	251.1
711.0	251.5
711.2	250.9
711.4	249.1
711.6	246.3
711.8	243.2
712.0	239.3
712.2	239.5
712.4	238.9
712.6	239.3
712.8	235.8
713.0	231.3
713.2	228.8
713.4	230.0
713.6	232.4
713.8	233.4
714.0	231.4
714.2	229.3
714.4	227.1
714.6	224.2
714.8	222.7
715.0	222.3
715.2	222.2
715.4	221.1
715.6	218.5
715.8	215.3
716.0	214.9
716.2	214.3
716.4	211.2
716.6	207.2
716.8	203.9
717.0	205.2
717.2	207.4
717.4	208.2
717.6	205.4
717.8	201.2
718.0	199.1
718.2	197.2
718.4	197.0
718.6	195.8
718.8	192.2
719.0	190.1
719.2	189.0
719.4	189.7
719.6	192.4
719.8	190.0
720.0	184.8
720.2	180.3
720.4	175.9
720.6	176.1
720.8	177.7
721.0	180.1
721.2	182.0
721.4	180.4
721.6	178.9
721.8	177.0
722.0	172.0
722.2	171.6
722.4	170.6
722.6	167.2
722.8	168.5
723.0	168.7
723.2	165.5
723.4	164.4
723.6	161.4
723.8	159.6
724.0	159.7
724.2	157.9
724.4	159.1
724.6	157.7
724.8	156.7
725.0	157.2
725.2	157.6
725.4	155.3
725.6	156.0
725.8	152.2
726.0	151.6
726.2	149.9
726.4	149.1
726.6	147.3
726.8	146.4
727.0	142.6
727.2	143.7
727.4	145.5
727.6	146.9
727.8	148.3
728.0	148.0
728.2	143.9
728.4	140.9
728.6	140.1
728.8	137.9
729.0	139.0
729.2	138.8
729.4	139.2
729.6	138.1
729.8	136.7
730.0	132.9
730.2	131.1
730.4	130.7
730.6	131.7
730.8	133.4
731.0	132.5
731.2	130.7
731.4	126.7
731.6	125.9
731.8	124.1
732.0	124.8
732.2	123.1
732.4	122.3
732.6	120.9
732.8	121.3
733.0	119.4
733.2	119.3
733.4	115.8
733.6	114.3
733.8	113.6
734.0	113.6
734.2	114.1
734.4	113.9
734.6	111.1
734.8	109.5
735.0	109.2
735.2	110.0
735.4	111.0
735.6	109.3
735.8	108.6
736.0	107.1
736.2	106.7
736.4	107.0
736.6	106.8
736.8	103.7
737.0	103.4
737.2	102.5
737.4	101.1
737.6	103.1
737.8	102.6
738.0	99.67
738.2	100.2
738.4	99.30
738.6	98.47
738.8	99.32
739.0	96.44
739.2	92.59
739.4	93.13
739.6	93.36
739.8	94.15
740.0	97.19
740.2	96.84
740.4	94.85
740.6	93.83
740.8	90.84
741.0	89.19
741.2	90.43
741.4	87.92
741.6	88.40
741.8	86.98
742.0	84.92
742.2	85.93
742.4	86.94
742.6	86.09
742.8	86.92
743.0	84.36
743.2	83.06
743.4	82.14
743.6	81.39
743.8	80.99
744.0	82.49
744.2	82.17
744.4	82.60
744.6	80.74
744.8	78.47
745.0	77.23
745.2	77.89
745.4	77.39
745.6	76.72
745.8	77.31
746.0	77.38
746.2	78.01
746.4	79.10
746.6	78.90
746.8	77.11
747.0	75.95
747.2	75.07
747.4	73.69
747.6	73.59
747.8	72.65
748.0	70.74
748.2	69.74
748.4	71.46
748.6	72.79
748.8	73.36
749.0	73.43
749.2	70.60
749.4	67.93
749.6	65.65
749.8	64.16
750.0	63.43
750.2	64.34
750.4	63.50
750.6	63.69
750.8	64.30
751.0	65.00
751.2	65.75
751.4	65.79
751.6	63.93
751.8	62.66
752.0	61.84
752.2	60.92
752.4	60.93
752.6	62.07
752.8	63.57
753.0	63.25
753.2	63.48
753.4	62.44
753.6	60.16
753.8	57.87
754.0	58.60
754.2	56.77
754.4	57.40
754.6	57.59
754.8	56.54
755.0	56.27
755.2	57.55
755.4	55.93
755.6	55.91
755.8	54.89
756.0	53.69
756.2	53.87
756.4	53.39
756.6	51.56
756.8	52.09
757.0	52.43
757.2	52.51
757.4	52.91
757.6	52.43
757.8	50.63
758.0	50.34
758.2	51.11
758.4	50.81
758.6	50.37
758.8	49.94
759.0	48.08
759.2	47.22
759.4	47.39
759.6	47.47
759.8	48.22
760.0	48.85
760.2	48.36
760.4	46.59
760.6	45.76
760.8	44.77
761.0	46.03
761.2	47.05
761.4	46.81
761.6	44.88
761.8	45.23
762.0	44.82
762.2	46.46
762.4	46.72
762.6	45.46
762.8	43.47
763.0	43.46
763.2	43.17
763.4	43.34
763.6	44.29
763.8	44.47
764.0	44.13
764.2	42.89
764.4	42.04
764.6	41.05
764.8	41.71
765.0	41.42
765.2	41.88
765.4	40.30
765.6	39.83
765.8	39.85
766.0	40.08
766.2	39.96
766.4	40.52
766.6	40.41
766.8	39.06
767.0	37.54
767.2	36.37
767.4	35.60
767.6	34.63
767.8	35.47
768.0	35.72
768.2	35.73
768.4	35.86
768.6	35.73
768.8	35.07
769.0	36.18
769.2	36.34
769.4	35.62
769.6	35.40
769.8	35.30
770.0	34.87
770.2	35.43
770.4	34.50
770.6	33.21
770.8	33.53
771.0	33.68
771.2	32.97
771.4	32.58
771.6	31.59
771.8	31.75
772.0	32.50
772.2	32.41
772.4	31.53
772.6	31.12
772.8	30.98
773.0	31.52
773.2	31.27
773.4	30.95
773.6	30.19
773.8	30.59
774.0	31.23
774.2	30.66
774.4	29.42
774.6	28.96
774.8	28.41
775.0	29.18
775.2	29.76
775.4	30.02
775.6	30.27
775.8	30.28
776.0	29.02
776.2	28.91
776.4	27.88
776.6	28.24
776.8	28.36
777.0	28.00
777.2	27.79
777.4	27.96
777.6	27.02
777.8	26.51
778.0	25.85
778.2	25.39
778.4	25.63
778.6	25.70
778.8	24.92
779.0	24.77
779.2	25.02
779.4	25.84
779.6	26.17
779.8	26.29
780.0	25.78
780.2	25.16
780.4	24.35
780.6	24.74
780.8	25.17
781.0	24.88
781.2	24.98
781.4	24.20
781.6	24.28
781.8	24.44
782.0	25.00
782.2	24.59
782.4	24.06
782.6	24.31
782.8	24.67
783.0	23.98
783.2	23.00
783.4	23.25
783.6	22.54
783.8	22.78
784.0	22.78
784.2	22.62
784.4	21.72
784.6	22.36
784.8	21.63
785.0	21.00
785.2	20.79
785.4	20.40
785.6	19.94
785.8	19.93
786.0	19.98
786.2	19.93
786.4	20.17
786.6	20.68
786.8	21.30
787.0	21.78
787.2	22.25
787.4	22.24
787.6	22.11
787.8	21.82
788.0	21.23
788.2	20.60
788.4	20.46
788.6	20.94
788.8	21.25
789.0	21.66
789.2	21.98
789.4	21.14
789.6	20.27
789.8	19.13
790.0	18.67
790.2	19.72
790.4	20.50
790.6	20.68
790.8	20.44
791.0	19.53
791.2	19.09
791.4	19.17
791.6	19.16
791.8	19.87
792.0	20.31
792.2	19.73
792.4	19.88
792.6	18.70
792.8	18.47
793.0	18.72
793.2	19.01
793.4	18.81
793.6	19.75
793.8	18.67
794.0	18.14
794.2	17.98
794.4	18.99
794.6	19.75
794.8	20.30
795.0	19.84
795.2	18.79
795.4	18.31
795.6	18.01
795.8	17.76
796.0	17.63
796.2	17.80
796.4	16.83
796.6	17.23
796.8	17.23
797.0	18.33
797.2	18.80
797.4	19.01
797.6	17.71
797.8	17.31
798.0	16.70
798.2	16.31
798.4	15.72
798.6	16.76
798.8	17.87
799.0	18.08
799.2	17.84
799.4	16.87
799.6	16.20
799.8	16.34
800.0	17.78

