Sample:	'20211010A(EM)
File name:	R-CDs 7.FDS
Run date:	'16:05:47, 06/09/2023
Operator:	Administrator
Comment:	'

Instrument
Model:	F-4700 FL Spectrophotometer
Serial number:	2019-001
ROM Version:	5J24010 00

Instrument parameters
Measurement type:	Wavelength scan
Scan mode:	Emission
Data mode:	Fluorescence
EX WL:	520.0 nm
EM  Start WL:	540.0 nm
EM  End WL:	800.0 nm
Scan speed:	1200 nm/min
Delay:	0.0 s
EX Slit:	10.0 nm
EM Slit:	10.0 nm
PMT Voltage:	615 V
Response:	0.002 s
Corrected spectra:	Off
Shutter control:	On

Processing performed
Savitsky-Golay smoothed
Smoothing order:	3
Number of points:	7
Number of times:	1

Peak integration
Integration method:	Rectangular
Sensitivity:	1
Threshold:	1.000

Peaks
No.	Start(nm)	Apex(nm)	End(nm)	Height(Data)	Valley(nm)	Valley(Data)
1	540.0	605.4	606.4	8771	606.4	8705
2	606.4	607.4	775.2	8763	775.2	73.66
3	775.2	775.8	784.4	79.64	784.4	55.34
4	784.4	785.2	795.6	57.99	795.6	43.79
5	795.6	797.2	798.6	45.24	798.6	41.56

Data points
nm	Data
540.0	733.9
540.2	741.4
540.4	748.2
540.6	755.6
540.8	766.2
541.0	777.0
541.2	788.9
541.4	798.8
541.6	808.0
541.8	823.7
542.0	837.4
542.2	846.5
542.4	858.1
542.6	861.8
542.8	870.2
543.0	885.6
543.2	896.7
543.4	914.6
543.6	930.7
543.8	946.0
544.0	965.5
544.2	979.1
544.4	988.1
544.6	998.6
544.8	996.5
545.0	1004
545.2	1017
545.4	1031
545.6	1050
545.8	1064
546.0	1080
546.2	1096
546.4	1114
546.6	1126
546.8	1141
547.0	1149
547.2	1166
547.4	1188
547.6	1208
547.8	1221
548.0	1233
548.2	1239
548.4	1251
548.6	1272
548.8	1283
549.0	1298
549.2	1311
549.4	1326
549.6	1350
549.8	1374
550.0	1394
550.2	1409
550.4	1424
550.6	1438
550.8	1457
551.0	1471
551.2	1497
551.4	1518
551.6	1544
551.8	1565
552.0	1586
552.2	1596
552.4	1616
552.6	1634
552.8	1650
553.0	1677
553.2	1701
553.4	1723
553.6	1744
553.8	1752
554.0	1769
554.2	1800
554.4	1823
554.6	1851
554.8	1877
555.0	1887
555.2	1909
555.4	1935
555.6	1959
555.8	1990
556.0	2014
556.2	2031
556.4	2044
556.6	2063
556.8	2090
557.0	2122
557.2	2153
557.4	2179
557.6	2197
557.8	2218
558.0	2238
558.2	2260
558.4	2296
558.6	2321
558.8	2344
559.0	2365
559.2	2390
559.4	2426
559.6	2464
559.8	2510
560.0	2547
560.2	2573
560.4	2597
560.6	2620
560.8	2635
561.0	2660
561.2	2685
561.4	2725
561.6	2761
561.8	2798
562.0	2834
562.2	2864
562.4	2892
562.6	2937
562.8	2968
563.0	2989
563.2	3018
563.4	3050
563.6	3083
563.8	3118
564.0	3149
564.2	3185
564.4	3216
564.6	3246
564.8	3278
565.0	3311
565.2	3355
565.4	3400
565.6	3421
565.8	3448
566.0	3474
566.2	3511
566.4	3559
566.6	3600
566.8	3624
567.0	3663
567.2	3694
567.4	3734
567.6	3778
567.8	3818
568.0	3852
568.2	3885
568.4	3922
568.6	3960
568.8	3991
569.0	4019
569.2	4059
569.4	4091
569.6	4142
569.8	4183
570.0	4223
570.2	4263
570.4	4305
570.6	4349
570.8	4393
571.0	4436
571.2	4478
571.4	4520
571.6	4559
571.8	4604
572.0	4640
572.2	4676
572.4	4707
572.6	4736
572.8	4767
573.0	4804
573.2	4848
573.4	4911
573.6	4958
573.8	5007
574.0	5037
574.2	5057
574.4	5085
574.6	5129
574.8	5168
575.0	5217
575.2	5256
575.4	5292
575.6	5324
575.8	5368
576.0	5407
576.2	5445
576.4	5485
576.6	5527
576.8	5568
577.0	5617
577.2	5654
577.4	5703
577.6	5736
577.8	5771
578.0	5811
578.2	5845
578.4	5888
578.6	5929
578.8	5964
579.0	5994
579.2	6035
579.4	6070
579.6	6106
579.8	6148
580.0	6180
580.2	6219
580.4	6259
580.6	6286
580.8	6319
581.0	6369
581.2	6401
581.4	6443
581.6	6478
581.8	6513
582.0	6546
582.2	6596
582.4	6637
582.6	6666
582.8	6687
583.0	6711
583.2	6730
583.4	6776
583.6	6808
583.8	6837
584.0	6861
584.2	6886
584.4	6922
584.6	6968
584.8	6996
585.0	7049
585.2	7092
585.4	7133
585.6	7162
585.8	7195
586.0	7217
586.2	7258
586.4	7309
586.6	7335
586.8	7349
587.0	7376
587.2	7391
587.4	7389
587.6	7427
587.8	7450
588.0	7482
588.2	7531
588.4	7567
588.6	7585
588.8	7609
589.0	7642
589.2	7670
589.4	7698
589.6	7732
589.8	7746
590.0	7752
590.2	7771
590.4	7791
590.6	7818
590.8	7865
591.0	7883
591.2	7908
591.4	7933
591.6	7935
591.8	7955
592.0	7980
592.2	7991
592.4	8015
592.6	8048
592.8	8060
593.0	8080
593.2	8097
593.4	8111
593.6	8134
593.8	8167
594.0	8215
594.2	8228
594.4	8255
594.6	8266
594.8	8268
595.0	8275
595.2	8283
595.4	8260
595.6	8263
595.8	8288
596.0	8334
596.2	8374
596.4	8402
596.6	8413
596.8	8402
597.0	8427
597.2	8443
597.4	8443
597.6	8466
597.8	8486
598.0	8502
598.2	8525
598.4	8527
598.6	8524
598.8	8540
599.0	8553
599.2	8562
599.4	8561
599.6	8565
599.8	8573
600.0	8590
600.2	8600
600.4	8603
600.6	8612
600.8	8631
601.0	8634
601.2	8619
601.4	8614
601.6	8633
601.8	8650
602.0	8678
602.2	8683
602.4	8662
602.6	8673
602.8	8682
603.0	8676
603.2	8703
603.4	8705
603.6	8706
603.8	8725
604.0	8718
604.2	8711
604.4	8717
604.6	8706
604.8	8709
605.0	8737
605.2	8754
605.4	8771
605.6	8765
605.8	8751
606.0	8722
606.2	8717
606.4	8705
606.6	8707
606.8	8713
607.0	8737
607.2	8760
607.4	8763
607.6	8754
607.8	8739
608.0	8727
608.2	8720
608.4	8730
608.6	8720
608.8	8731
609.0	8729
609.2	8744
609.4	8730
609.6	8722
609.8	8704
610.0	8682
610.2	8666
610.4	8660
610.6	8644
610.8	8642
611.0	8636
611.2	8633
611.4	8630
611.6	8625
611.8	8608
612.0	8590
612.2	8579
612.4	8593
612.6	8594
612.8	8598
613.0	8573
613.2	8561
613.4	8548
613.6	8546
613.8	8545
614.0	8533
614.2	8506
614.4	8489
614.6	8471
614.8	8466
615.0	8457
615.2	8441
615.4	8434
615.6	8409
615.8	8393
616.0	8377
616.2	8362
616.4	8348
616.6	8349
616.8	8328
617.0	8310
617.2	8296
617.4	8288
617.6	8281
617.8	8268
618.0	8246
618.2	8229
618.4	8223
618.6	8198
618.8	8190
619.0	8163
619.2	8132
619.4	8102
619.6	8084
619.8	8046
620.0	8054
620.2	8040
620.4	8025
620.6	8029
620.8	8028
621.0	7994
621.2	7983
621.4	7962
621.6	7928
621.8	7927
622.0	7906
622.2	7889
622.4	7858
622.6	7845
622.8	7814
623.0	7796
623.2	7789
623.4	7788
623.6	7785
623.8	7780
624.0	7757
624.2	7722
624.4	7690
624.6	7650
624.8	7640
625.0	7607
625.2	7580
625.4	7539
625.6	7513
625.8	7492
626.0	7480
626.2	7461
626.4	7462
626.6	7448
626.8	7435
627.0	7402
627.2	7355
627.4	7309
627.6	7302
627.8	7290
628.0	7284
628.2	7270
628.4	7235
628.6	7202
628.8	7193
629.0	7177
629.2	7167
629.4	7135
629.6	7086
629.8	7038
630.0	7025
630.2	7016
630.4	7011
630.6	6986
630.8	6947
631.0	6901
631.2	6883
631.4	6858
631.6	6826
631.8	6801
632.0	6761
632.2	6725
632.4	6720
632.6	6718
632.8	6686
633.0	6657
633.2	6631
633.4	6627
633.6	6633
633.8	6627
634.0	6597
634.2	6543
634.4	6502
634.6	6475
634.8	6442
635.0	6433
635.2	6426
635.4	6411
635.6	6378
635.8	6335
636.0	6296
636.2	6275
636.4	6249
636.6	6235
636.8	6218
637.0	6200
637.2	6178
637.4	6148
637.6	6115
637.8	6093
638.0	6078
638.2	6061
638.4	6043
638.6	5998
638.8	5946
639.0	5922
639.2	5888
639.4	5877
639.6	5866
639.8	5847
640.0	5815
640.2	5806
640.4	5777
640.6	5760
640.8	5716
641.0	5692
641.2	5646
641.4	5636
641.6	5644
641.8	5635
642.0	5615
642.2	5580
642.4	5528
642.6	5500
642.8	5479
643.0	5454
643.2	5430
643.4	5408
643.6	5388
643.8	5383
644.0	5356
644.2	5336
644.4	5293
644.6	5264
644.8	5235
645.0	5213
645.2	5180
645.4	5161
645.6	5134
645.8	5108
646.0	5087
646.2	5058
646.4	5040
646.6	5015
646.8	5000
647.0	4976
647.2	4949
647.4	4921
647.6	4907
647.8	4876
648.0	4858
648.2	4832
648.4	4805
648.6	4779
648.8	4750
649.0	4729
649.2	4711
649.4	4694
649.6	4677
649.8	4652
650.0	4626
650.2	4592
650.4	4562
650.6	4552
650.8	4536
651.0	4533
651.2	4515
651.4	4480
651.6	4450
651.8	4422
652.0	4400
652.2	4383
652.4	4363
652.6	4345
652.8	4318
653.0	4295
653.2	4276
653.4	4252
653.6	4231
653.8	4219
654.0	4193
654.2	4178
654.4	4145
654.6	4120
654.8	4081
655.0	4058
655.2	4030
655.4	4016
655.6	4006
655.8	3997
656.0	3976
656.2	3955
656.4	3929
656.6	3906
656.8	3890
657.0	3866
657.2	3852
657.4	3844
657.6	3838
657.8	3827
658.0	3808
658.2	3771
658.4	3736
658.6	3701
658.8	3670
659.0	3658
659.2	3638
659.4	3621
659.6	3610
659.8	3595
660.0	3566
660.2	3540
660.4	3510
660.6	3494
660.8	3486
661.0	3473
661.2	3457
661.4	3428
661.6	3412
661.8	3395
662.0	3387
662.2	3372
662.4	3354
662.6	3330
662.8	3309
663.0	3289
663.2	3276
663.4	3268
663.6	3254
663.8	3234
664.0	3215
664.2	3189
664.4	3163
664.6	3136
664.8	3109
665.0	3092
665.2	3086
665.4	3065
665.6	3054
665.8	3034
666.0	3014
666.2	3020
666.4	3014
666.6	2987
666.8	2960
667.0	2937
667.2	2908
667.4	2905
667.6	2888
667.8	2866
668.0	2846
668.2	2837
668.4	2816
668.6	2804
668.8	2789
669.0	2777
669.2	2767
669.4	2755
669.6	2735
669.8	2721
670.0	2707
670.2	2685
670.4	2655
670.6	2630
670.8	2612
671.0	2607
671.2	2605
671.4	2585
671.6	2566
671.8	2556
672.0	2546
672.2	2541
672.4	2528
672.6	2504
672.8	2492
673.0	2477
673.2	2456
673.4	2445
673.6	2428
673.8	2404
674.0	2388
674.2	2367
674.4	2348
674.6	2343
674.8	2345
675.0	2338
675.2	2327
675.4	2307
675.6	2285
675.8	2271
676.0	2272
676.2	2267
676.4	2252
676.6	2230
676.8	2203
677.0	2181
677.2	2170
677.4	2160
677.6	2149
677.8	2146
678.0	2135
678.2	2114
678.4	2098
678.6	2082
678.8	2063
679.0	2056
679.2	2050
679.4	2039
679.6	2028
679.8	2024
680.0	2005
680.2	1997
680.4	1986
680.6	1974
680.8	1952
681.0	1942
681.2	1919
681.4	1902
681.6	1887
681.8	1880
682.0	1874
682.2	1864
682.4	1845
682.6	1828
682.8	1815
683.0	1807
683.2	1804
683.4	1796
683.6	1788
683.8	1783
684.0	1770
684.2	1749
684.4	1737
684.6	1727
684.8	1722
685.0	1705
685.2	1692
685.4	1677
685.6	1665
685.8	1657
686.0	1653
686.2	1641
686.4	1633
686.6	1624
686.8	1615
687.0	1598
687.2	1587
687.4	1572
687.6	1560
687.8	1554
688.0	1555
688.2	1543
688.4	1540
688.6	1526
688.8	1513
689.0	1502
689.2	1496
689.4	1487
689.6	1485
689.8	1478
690.0	1471
690.2	1460
690.4	1450
690.6	1435
690.8	1428
691.0	1419
691.2	1405
691.4	1393
691.6	1384
691.8	1376
692.0	1377
692.2	1376
692.4	1363
692.6	1350
692.8	1337
693.0	1332
693.2	1326
693.4	1323
693.6	1314
693.8	1298
694.0	1288
694.2	1286
694.4	1282
694.6	1275
694.8	1269
695.0	1260
695.2	1254
695.4	1252
695.6	1242
695.8	1229
696.0	1218
696.2	1210
696.4	1205
696.6	1203
696.8	1199
697.0	1186
697.2	1176
697.4	1166
697.6	1160
697.8	1158
698.0	1158
698.2	1146
698.4	1138
698.6	1125
698.8	1114
699.0	1107
699.2	1105
699.4	1107
699.6	1104
699.8	1096
700.0	1088
700.2	1080
700.4	1071
700.6	1075
700.8	1076
701.0	1073
701.2	1068
701.4	1058
701.6	1041
701.8	1038
702.0	1037
702.2	1034
702.4	1025
702.6	1016
702.8	1012
703.0	1012
703.2	1002
703.4	999.6
703.6	987.8
703.8	977.9
704.0	977.7
704.2	971.5
704.4	961.2
704.6	954.4
704.8	946.1
705.0	944.2
705.2	942.8
705.4	939.0
705.6	933.6
705.8	926.1
706.0	921.1
706.2	919.3
706.4	907.4
706.6	900.1
706.8	895.8
707.0	894.3
707.2	887.9
707.4	883.6
707.6	875.1
707.8	869.5
708.0	866.3
708.2	860.6
708.4	854.6
708.6	851.6
708.8	848.3
709.0	845.0
709.2	839.2
709.4	829.0
709.6	827.3
709.8	827.3
710.0	822.6
710.2	815.8
710.4	807.3
710.6	797.2
710.8	794.1
711.0	789.6
711.2	780.0
711.4	773.7
711.6	772.6
711.8	769.3
712.0	768.4
712.2	763.6
712.4	757.9
712.6	748.6
712.8	745.6
713.0	738.1
713.2	735.6
713.4	731.3
713.6	724.9
713.8	710.8
714.0	710.6
714.2	708.0
714.4	705.6
714.6	703.0
714.8	702.4
715.0	696.7
715.2	698.6
715.4	693.8
715.6	689.6
715.8	682.5
716.0	674.5
716.2	668.4
716.4	659.1
716.6	653.7
716.8	656.4
717.0	652.5
717.2	645.0
717.4	641.2
717.6	627.6
717.8	621.3
718.0	621.0
718.2	619.7
718.4	620.2
718.6	620.9
718.8	612.9
719.0	606.9
719.2	600.0
719.4	594.5
719.6	591.4
719.8	590.8
720.0	581.3
720.2	575.5
720.4	570.1
720.6	565.4
720.8	560.3
721.0	562.2
721.2	556.6
721.4	553.2
721.6	550.5
721.8	545.8
722.0	538.4
722.2	537.3
722.4	529.8
722.6	523.5
722.8	519.5
723.0	517.1
723.2	516.1
723.4	513.0
723.6	510.6
723.8	509.2
724.0	503.6
724.2	496.1
724.4	492.4
724.6	487.5
724.8	488.3
725.0	483.5
725.2	479.9
725.4	474.7
725.6	474.3
725.8	474.9
726.0	472.4
726.2	468.6
726.4	465.7
726.6	458.1
726.8	450.4
727.0	444.9
727.2	440.5
727.4	441.4
727.6	438.7
727.8	438.1
728.0	434.5
728.2	434.2
728.4	430.1
728.6	426.5
728.8	421.4
729.0	417.6
729.2	413.1
729.4	413.9
729.6	411.1
729.8	409.5
730.0	404.6
730.2	401.5
730.4	397.6
730.6	394.6
730.8	391.7
731.0	384.7
731.2	379.9
731.4	378.9
731.6	373.8
731.8	370.1
732.0	371.8
732.2	368.9
732.4	364.8
732.6	362.4
732.8	358.4
733.0	356.4
733.2	356.5
733.4	355.1
733.6	351.8
733.8	352.7
734.0	351.9
734.2	351.2
734.4	346.4
734.6	340.0
734.8	336.0
735.0	333.4
735.2	331.7
735.4	332.0
735.6	330.6
735.8	329.1
736.0	326.4
736.2	322.9
736.4	317.4
736.6	310.5
736.8	303.2
737.0	300.6
737.2	301.1
737.4	302.1
737.6	301.1
737.8	299.4
738.0	296.8
738.2	294.3
738.4	293.6
738.6	291.1
738.8	289.1
739.0	286.0
739.2	286.3
739.4	285.6
739.6	281.2
739.8	274.9
740.0	272.7
740.2	267.7
740.4	266.6
740.6	267.1
740.8	265.4
741.0	265.0
741.2	264.8
741.4	263.9
741.6	263.9
741.8	261.8
742.0	260.1
742.2	258.2
742.4	251.2
742.6	246.7
742.8	244.9
743.0	243.8
743.2	247.1
743.4	247.2
743.6	242.7
743.8	239.2
744.0	236.4
744.2	235.3
744.4	236.0
744.6	232.9
744.8	228.2
745.0	227.3
745.2	224.0
745.4	223.1
745.6	220.7
745.8	217.2
746.0	215.8
746.2	217.7
746.4	217.0
746.6	219.7
746.8	217.6
747.0	211.4
747.2	205.3
747.4	203.1
747.6	203.9
747.8	203.8
748.0	203.7
748.2	200.1
748.4	197.1
748.6	194.7
748.8	196.2
749.0	192.0
749.2	190.2
749.4	187.0
749.6	189.5
749.8	188.5
750.0	189.1
750.2	187.4
750.4	185.2
750.6	181.2
750.8	181.5
751.0	181.1
751.2	179.4
751.4	180.7
751.6	180.1
751.8	178.7
752.0	176.2
752.2	175.6
752.4	173.4
752.6	174.0
752.8	172.3
753.0	170.7
753.2	169.3
753.4	167.7
753.6	166.4
753.8	165.1
754.0	164.4
754.2	163.3
754.4	164.0
754.6	162.7
754.8	160.4
755.0	157.5
755.2	157.5
755.4	157.0
755.6	156.0
755.8	156.2
756.0	155.3
756.2	152.9
756.4	151.2
756.6	150.8
756.8	149.3
757.0	150.5
757.2	152.1
757.4	149.3
757.6	143.9
757.8	142.7
758.0	141.6
758.2	141.7
758.4	144.9
758.6	144.4
758.8	141.5
759.0	139.6
759.2	135.9
759.4	133.3
759.6	134.0
759.8	133.3
760.0	131.8
760.2	130.2
760.4	129.2
760.6	128.5
760.8	129.6
761.0	130.9
761.2	129.2
761.4	128.6
761.6	127.7
761.8	124.2
762.0	123.2
762.2	122.7
762.4	122.1
762.6	121.2
762.8	120.2
763.0	119.0
763.2	118.2
763.4	117.0
763.6	115.7
763.8	112.3
764.0	112.7
764.2	113.2
764.4	113.9
764.6	114.8
764.8	113.4
765.0	111.3
765.2	109.4
765.4	107.7
765.6	105.4
765.8	104.0
766.0	103.0
766.2	103.1
766.4	102.3
766.6	104.0
766.8	102.7
767.0	102.7
767.2	101.0
767.4	99.91
767.6	99.24
767.8	98.40
768.0	96.05
768.2	95.62
768.4	95.29
768.6	94.52
768.8	95.13
769.0	95.51
769.2	95.18
769.4	95.21
769.6	94.74
769.8	91.00
770.0	87.91
770.2	88.45
770.4	88.88
770.6	88.76
770.8	88.38
771.0	87.37
771.2	86.69
771.4	87.36
771.6	87.12
771.8	86.54
772.0	85.96
772.2	85.63
772.4	87.24
772.6	86.64
772.8	84.99
773.0	83.31
773.2	80.90
773.4	78.82
773.6	79.34
773.8	78.18
774.0	77.07
774.2	77.81
774.4	77.60
774.6	77.36
774.8	75.75
775.0	74.42
775.2	73.66
775.4	76.21
775.6	77.77
775.8	79.64
776.0	77.64
776.2	75.65
776.4	72.66
776.6	71.53
776.8	70.15
777.0	70.48
777.2	71.84
777.4	71.22
777.6	72.03
777.8	71.37
778.0	69.91
778.2	69.52
778.4	70.49
778.6	70.12
778.8	70.94
779.0	69.19
779.2	67.70
779.4	66.10
779.6	63.85
779.8	63.77
780.0	65.38
780.2	66.21
780.4	66.24
780.6	65.63
780.8	64.02
781.0	63.66
781.2	64.67
781.4	63.84
781.6	62.95
781.8	61.58
782.0	60.95
782.2	60.69
782.4	61.08
782.6	60.03
782.8	60.08
783.0	58.51
783.2	59.23
783.4	60.05
783.6	59.73
783.8	58.74
784.0	57.38
784.2	55.54
784.4	55.34
784.6	56.43
784.8	56.16
785.0	57.45
785.2	57.99
785.4	57.99
785.6	56.12
785.8	56.63
786.0	55.98
786.2	56.69
786.4	56.41
786.6	55.39
786.8	53.86
787.0	54.06
787.2	53.18
787.4	53.72
787.6	54.09
787.8	54.30
788.0	54.49
788.2	54.06
788.4	52.30
788.6	52.49
788.8	52.54
789.0	53.44
789.2	52.77
789.4	52.41
789.6	51.25
789.8	50.85
790.0	50.73
790.2	51.48
790.4	50.63
790.6	51.22
790.8	50.61
791.0	49.57
791.2	49.21
791.4	48.96
791.6	48.87
791.8	49.06
792.0	48.76
792.2	47.27
792.4	47.01
792.6	47.99
792.8	48.50
793.0	49.06
793.2	49.67
793.4	46.92
793.6	46.37
793.8	46.14
794.0	46.81
794.2	47.75
794.4	47.67
794.6	46.01
794.8	45.85
795.0	45.04
795.2	45.09
795.4	44.23
795.6	43.79
795.8	43.92
796.0	44.59
796.2	45.24
796.4	44.48
796.6	44.30
796.8	44.16
797.0	44.66
797.2	45.24
797.4	44.46
797.6	43.57
797.8	42.77
798.0	42.33
798.2	42.26
798.4	42.25
798.6	41.56
798.8	42.42
799.0	42.77
799.2	43.48
799.4	44.05
799.6	43.73
799.8	42.24
800.0	39.15

