Sample:	'20211010A(EM)
File name:	R-CDs 9 900.FDS
Run date:	'16:14:10, 06/09/2023
Operator:	Administrator
Comment:	'

Instrument
Model:	F-4700 FL Spectrophotometer
Serial number:	2019-001
ROM Version:	5J24010 00

Instrument parameters
Measurement type:	Wavelength scan
Scan mode:	Emission
Data mode:	Fluorescence
EX WL:	520.0 nm
EM  Start WL:	540.0 nm
EM  End WL:	800.0 nm
Scan speed:	1200 nm/min
Delay:	0.0 s
EX Slit:	10.0 nm
EM Slit:	10.0 nm
PMT Voltage:	615 V
Response:	0.002 s
Corrected spectra:	Off
Shutter control:	On

Processing performed
Savitsky-Golay smoothed
Smoothing order:	3
Number of points:	7
Number of times:	1

Peak integration
Integration method:	Rectangular
Sensitivity:	1
Threshold:	1.000

Peaks
No.	Start(nm)	Apex(nm)	End(nm)	Height(Data)	Valley(nm)	Valley(Data)
1	540.0	603.6	604.8	1855	604.8	1844
2	604.8	608.0	609.0	1885	609.0	1859
3	609.0	610.4	611.2	1872	611.2	1849
4	611.2	612.8	613.4	1870	613.4	1847
5	613.4	614.2	618.8	1872	618.8	1808
6	618.8	619.4	749.2	1827	749.2	65.47
7	749.2	749.8	759.6	68.19	759.6	44.20
8	759.6	760.6	764.2	48.10	764.2	38.33
9	764.2	765.6	770.8	39.67	770.8	30.83
10	770.8	772.2	773.2	33.33	773.2	28.49
11	773.2	774.0	777.2	30.55	777.2	25.54
12	777.2	777.8	785.2	27.95	785.2	21.12
13	785.2	786.0	787.4	22.71	787.4	19.34
14	787.4	788.0	790.0	21.17	790.0	18.79
15	790.0	790.8	795.4	20.65	795.4	17.94
16	795.4	796.2	797.2	19.33	797.2	16.68
17	797.2	798.0	800.0	18.00	800.0	16.94

Data points
nm	Data
540.0	198.0
540.2	200.9
540.4	201.8
540.6	201.6
540.8	200.9
541.0	200.4
541.2	202.5
541.4	202.3
541.6	203.9
541.8	206.0
542.0	206.7
542.2	207.7
542.4	211.7
542.6	215.8
542.8	219.6
543.0	223.8
543.2	224.1
543.4	221.8
543.6	220.8
543.8	223.8
544.0	225.6
544.2	229.7
544.4	231.4
544.6	228.4
544.8	230.1
545.0	233.5
545.2	234.2
545.4	235.6
545.6	234.3
545.8	234.8
546.0	235.7
546.2	240.4
546.4	244.0
546.6	245.2
546.8	246.2
547.0	251.9
547.2	252.9
547.4	256.6
547.6	261.6
547.8	265.9
548.0	270.2
548.2	272.6
548.4	271.9
548.6	266.4
548.8	263.5
549.0	267.1
549.2	269.6
549.4	273.6
549.6	280.5
549.8	281.0
550.0	280.7
550.2	285.4
550.4	285.4
550.6	288.1
550.8	290.6
551.0	293.1
551.2	294.1
551.4	296.2
551.6	297.7
551.8	301.0
552.0	303.8
552.2	307.3
552.4	309.8
552.6	311.6
552.8	316.7
553.0	322.3
553.2	324.6
553.4	328.0
553.6	332.5
553.8	331.4
554.0	337.2
554.2	342.6
554.4	346.0
554.6	350.7
554.8	353.5
555.0	349.5
555.2	356.4
555.4	359.9
555.6	368.3
555.8	371.5
556.0	373.1
556.2	375.3
556.4	380.8
556.6	384.5
556.8	390.5
557.0	392.3
557.2	389.4
557.4	390.4
557.6	392.8
557.8	399.3
558.0	410.1
558.2	422.8
558.4	429.2
558.6	430.3
558.8	433.7
559.0	433.3
559.2	439.6
559.4	447.4
559.6	452.8
559.8	459.1
560.0	464.9
560.2	469.3
560.4	476.1
560.6	478.7
560.8	483.4
561.0	491.2
561.2	496.8
561.4	504.0
561.6	514.3
561.8	520.4
562.0	530.2
562.2	535.4
562.4	543.8
562.6	549.0
562.8	556.2
563.0	558.2
563.2	563.3
563.4	563.5
563.6	567.7
563.8	573.0
564.0	583.2
564.2	592.6
564.4	602.8
564.6	609.8
564.8	616.6
565.0	619.9
565.2	629.8
565.4	638.2
565.6	646.3
565.8	652.3
566.0	661.2
566.2	667.0
566.4	677.7
566.6	686.5
566.8	692.2
567.0	696.5
567.2	706.7
567.4	712.2
567.6	721.5
567.8	728.7
568.0	733.6
568.2	745.8
568.4	761.2
568.6	772.8
568.8	786.0
569.0	790.1
569.2	794.0
569.4	804.5
569.6	811.4
569.8	821.2
570.0	830.5
570.2	840.2
570.4	850.2
570.6	867.1
570.8	877.6
571.0	890.8
571.2	899.5
571.4	905.9
571.6	913.3
571.8	923.9
572.0	932.0
572.2	939.2
572.4	947.5
572.6	950.7
572.8	963.7
573.0	977.3
573.2	985.8
573.4	995.0
573.6	1010
573.8	1017
574.0	1033
574.2	1044
574.4	1049
574.6	1052
574.8	1059
575.0	1061
575.2	1081
575.4	1096
575.6	1110
575.8	1113
576.0	1123
576.2	1135
576.4	1149
576.6	1158
576.8	1164
577.0	1171
577.2	1181
577.4	1194
577.6	1205
577.8	1212
578.0	1221
578.2	1228
578.4	1233
578.6	1243
578.8	1253
579.0	1262
579.2	1272
579.4	1284
579.6	1291
579.8	1304
580.0	1307
580.2	1309
580.4	1313
580.6	1322
580.8	1329
581.0	1338
581.2	1351
581.4	1357
581.6	1367
581.8	1375
582.0	1375
582.2	1383
582.4	1401
582.6	1409
582.8	1414
583.0	1416
583.2	1407
583.4	1414
583.6	1432
583.8	1442
584.0	1459
584.2	1467
584.4	1466
584.6	1466
584.8	1475
585.0	1478
585.2	1484
585.4	1490
585.6	1494
585.8	1500
586.0	1516
586.2	1526
586.4	1527
586.6	1529
586.8	1527
587.0	1535
587.2	1555
587.4	1566
587.6	1568
587.8	1565
588.0	1562
588.2	1567
588.4	1581
588.6	1593
588.8	1603
589.0	1610
589.2	1617
589.4	1622
589.6	1618
589.8	1616
590.0	1614
590.2	1622
590.4	1634
590.6	1645
590.8	1648
591.0	1653
591.2	1656
591.4	1661
591.6	1670
591.8	1679
592.0	1680
592.2	1690
592.4	1687
592.6	1690
592.8	1698
593.0	1707
593.2	1708
593.4	1716
593.6	1711
593.8	1715
594.0	1716
594.2	1722
594.4	1723
594.6	1732
594.8	1732
595.0	1736
595.2	1742
595.4	1747
595.6	1751
595.8	1751
596.0	1758
596.2	1760
596.4	1771
596.6	1778
596.8	1783
597.0	1778
597.2	1783
597.4	1780
597.6	1789
597.8	1789
598.0	1793
598.2	1791
598.4	1794
598.6	1796
598.8	1804
599.0	1801
599.2	1799
599.4	1799
599.6	1801
599.8	1805
600.0	1815
600.2	1819
600.4	1822
600.6	1835
600.8	1836
601.0	1835
601.2	1835
601.4	1828
601.6	1827
601.8	1839
602.0	1837
602.2	1842
602.4	1846
602.6	1840
602.8	1839
603.0	1847
603.2	1845
603.4	1855
603.6	1855
603.8	1854
604.0	1855
604.2	1851
604.4	1845
604.6	1845
604.8	1844
605.0	1854
605.2	1863
605.4	1861
605.6	1860
605.8	1858
606.0	1865
606.2	1867
606.4	1870
606.6	1868
606.8	1868
607.0	1867
607.2	1870
607.4	1871
607.6	1877
607.8	1880
608.0	1885
608.2	1885
608.4	1871
608.6	1865
608.8	1863
609.0	1859
609.2	1861
609.4	1866
609.6	1860
609.8	1864
610.0	1862
610.2	1869
610.4	1872
610.6	1869
610.8	1863
611.0	1855
611.2	1849
611.4	1856
611.6	1864
611.8	1864
612.0	1869
612.2	1862
612.4	1863
612.6	1865
612.8	1870
613.0	1863
613.2	1859
613.4	1847
613.6	1847
613.8	1854
614.0	1866
614.2	1872
614.4	1871
614.6	1865
614.8	1854
615.0	1843
615.2	1839
615.4	1840
615.6	1842
615.8	1852
616.0	1848
616.2	1838
616.4	1839
616.6	1839
616.8	1834
617.0	1834
617.2	1830
617.4	1819
617.6	1825
617.8	1827
618.0	1824
618.2	1821
618.4	1815
618.6	1810
618.8	1808
619.0	1814
619.2	1822
619.4	1827
619.6	1824
619.8	1822
620.0	1818
620.2	1818
620.4	1812
620.6	1804
620.8	1794
621.0	1786
621.2	1787
621.4	1784
621.6	1776
621.8	1779
622.0	1777
622.2	1782
622.4	1785
622.6	1783
622.8	1779
623.0	1781
623.2	1773
623.4	1769
623.6	1759
623.8	1755
624.0	1758
624.2	1756
624.4	1750
624.6	1741
624.8	1731
625.0	1728
625.2	1738
625.4	1741
625.6	1740
625.8	1733
626.0	1725
626.2	1720
626.4	1723
626.6	1716
626.8	1714
627.0	1716
627.2	1710
627.4	1711
627.6	1708
627.8	1698
628.0	1694
628.2	1694
628.4	1688
628.6	1688
628.8	1682
629.0	1672
629.2	1667
629.4	1667
629.6	1670
629.8	1667
630.0	1662
630.2	1652
630.4	1647
630.6	1640
630.8	1639
631.0	1631
631.2	1628
631.4	1618
631.6	1613
631.8	1614
632.0	1613
632.2	1609
632.4	1610
632.6	1600
632.8	1601
633.0	1606
633.2	1600
633.4	1598
633.6	1596
633.8	1591
634.0	1585
634.2	1577
634.4	1572
634.6	1575
634.8	1570
635.0	1566
635.2	1550
635.4	1539
635.6	1537
635.8	1543
636.0	1542
636.2	1540
636.4	1538
636.6	1532
636.8	1523
637.0	1518
637.2	1512
637.4	1503
637.6	1500
637.8	1491
638.0	1486
638.2	1490
638.4	1489
638.6	1481
638.8	1472
639.0	1458
639.2	1451
639.4	1451
639.6	1443
639.8	1439
640.0	1437
640.2	1432
640.4	1433
640.6	1436
640.8	1432
641.0	1430
641.2	1424
641.4	1415
641.6	1413
641.8	1406
642.0	1395
642.2	1386
642.4	1382
642.6	1372
642.8	1369
643.0	1364
643.2	1358
643.4	1352
643.6	1350
643.8	1337
644.0	1329
644.2	1322
644.4	1323
644.6	1325
644.8	1322
645.0	1321
645.2	1324
645.4	1319
645.6	1314
645.8	1303
646.0	1289
646.2	1283
646.4	1284
646.6	1280
646.8	1266
647.0	1264
647.2	1261
647.4	1265
647.6	1268
647.8	1264
648.0	1253
648.2	1245
648.4	1234
648.6	1234
648.8	1227
649.0	1223
649.2	1222
649.4	1216
649.6	1214
649.8	1211
650.0	1195
650.2	1187
650.4	1179
650.6	1174
650.8	1171
651.0	1170
651.2	1161
651.4	1156
651.6	1147
651.8	1144
652.0	1143
652.2	1144
652.4	1137
652.6	1134
652.8	1123
653.0	1119
653.2	1115
653.4	1115
653.6	1105
653.8	1103
654.0	1094
654.2	1089
654.4	1086
654.6	1085
654.8	1070
655.0	1065
655.2	1057
655.4	1058
655.6	1056
655.8	1057
656.0	1050
656.2	1047
656.4	1041
656.6	1033
656.8	1026
657.0	1024
657.2	1014
657.4	1010
657.6	1006
657.8	999.8
658.0	997.9
658.2	999.7
658.4	989.6
658.6	987.9
658.8	985.1
659.0	981.4
659.2	978.9
659.4	980.5
659.6	966.8
659.8	961.0
660.0	955.7
660.2	948.6
660.4	941.3
660.6	941.0
660.8	930.0
661.0	925.5
661.2	923.2
661.4	920.5
661.6	915.3
661.8	915.1
662.0	907.9
662.2	903.6
662.4	897.9
662.6	894.8
662.8	893.3
663.0	888.5
663.2	879.2
663.4	872.4
663.6	866.5
663.8	860.1
664.0	861.1
664.2	861.7
664.4	857.3
664.6	853.7
664.8	850.9
665.0	837.5
665.2	835.0
665.4	833.3
665.6	827.7
665.8	817.1
666.0	813.8
666.2	806.1
666.4	806.9
666.6	803.2
666.8	800.0
667.0	786.8
667.2	785.1
667.4	782.6
667.6	783.3
667.8	779.8
668.0	780.6
668.2	775.1
668.4	773.1
668.6	768.9
668.8	764.1
669.0	755.7
669.2	751.4
669.4	750.9
669.6	748.9
669.8	747.1
670.0	742.3
670.2	735.7
670.4	731.2
670.6	729.7
670.8	725.2
671.0	722.9
671.2	720.9
671.4	718.5
671.6	714.8
671.8	708.6
672.0	697.7
672.2	695.6
672.4	693.3
672.6	687.1
672.8	684.3
673.0	679.0
673.2	670.6
673.4	671.3
673.6	671.1
673.8	668.4
674.0	666.8
674.2	663.3
674.4	661.2
674.6	655.3
674.8	649.5
675.0	645.4
675.2	638.5
675.4	636.5
675.6	638.3
675.8	634.7
676.0	625.4
676.2	620.4
676.4	614.4
676.6	620.6
676.8	625.5
677.0	628.3
677.2	621.6
677.4	613.5
677.6	603.8
677.8	602.3
678.0	597.6
678.2	592.8
678.4	588.8
678.6	586.4
678.8	581.5
679.0	579.6
679.2	571.1
679.4	563.7
679.6	562.3
679.8	561.8
680.0	560.6
680.2	563.5
680.4	560.8
680.6	556.3
680.8	550.0
681.0	536.8
681.2	531.0
681.4	534.1
681.6	536.3
681.8	535.7
682.0	534.4
682.2	528.4
682.4	525.7
682.6	525.5
682.8	518.5
683.0	516.2
683.2	510.5
683.4	502.5
683.6	499.3
683.8	501.0
684.0	499.8
684.2	503.9
684.4	499.2
684.6	493.4
684.8	491.0
685.0	490.5
685.2	488.9
685.4	488.4
685.6	485.6
685.8	482.3
686.0	479.0
686.2	469.8
686.4	464.2
686.6	462.4
686.8	461.1
687.0	455.3
687.2	454.8
687.4	450.6
687.6	453.4
687.8	454.2
688.0	451.4
688.2	446.3
688.4	441.2
688.6	436.1
688.8	437.1
689.0	433.8
689.2	428.6
689.4	428.5
689.6	427.1
689.8	425.0
690.0	425.3
690.2	421.4
690.4	414.1
690.6	412.3
690.8	414.8
691.0	412.7
691.2	411.8
691.4	408.1
691.6	404.7
691.8	404.9
692.0	403.6
692.2	397.0
692.4	393.1
692.6	391.8
692.8	394.3
693.0	395.0
693.2	392.4
693.4	388.5
693.6	384.6
693.8	384.5
694.0	382.1
694.2	378.8
694.4	376.7
694.6	373.6
694.8	369.5
695.0	367.1
695.2	364.1
695.4	363.5
695.6	363.4
695.8	362.3
696.0	363.3
696.2	359.7
696.4	356.1
696.6	352.5
696.8	347.5
697.0	345.9
697.2	348.3
697.4	348.0
697.6	345.4
697.8	345.4
698.0	342.5
698.2	338.6
698.4	335.8
698.6	333.0
698.8	329.4
699.0	328.9
699.2	331.2
699.4	331.0
699.6	328.4
699.8	326.1
700.0	321.9
700.2	317.8
700.4	317.6
700.6	317.6
700.8	314.9
701.0	317.2
701.2	319.1
701.4	319.7
701.6	316.8
701.8	313.9
702.0	308.7
702.2	306.6
702.4	306.1
702.6	302.1
702.8	297.3
703.0	297.0
703.2	297.1
703.4	296.2
703.6	296.7
703.8	294.7
704.0	291.2
704.2	289.1
704.4	287.5
704.6	285.8
704.8	287.3
705.0	286.7
705.2	283.8
705.4	280.2
705.6	279.0
705.8	276.3
706.0	280.9
706.2	282.3
706.4	283.1
706.6	279.8
706.8	276.8
707.0	270.3
707.2	268.9
707.4	268.2
707.6	270.8
707.8	268.9
708.0	267.3
708.2	266.2
708.4	259.6
708.6	256.5
708.8	256.6
709.0	255.1
709.2	251.4
709.4	250.6
709.6	246.4
709.8	247.9
710.0	246.2
710.2	248.5
710.4	246.6
710.6	245.0
710.8	243.5
711.0	242.5
711.2	238.8
711.4	239.9
711.6	239.3
711.8	241.2
712.0	240.5
712.2	238.8
712.4	236.5
712.6	232.2
712.8	227.4
713.0	227.9
713.2	225.9
713.4	224.3
713.6	225.0
713.8	224.3
714.0	222.8
714.2	220.6
714.4	218.1
714.6	213.6
714.8	210.8
715.0	209.2
715.2	209.4
715.4	208.2
715.6	210.3
715.8	209.6
716.0	209.1
716.2	207.9
716.4	205.6
716.6	203.5
716.8	201.1
717.0	197.7
717.2	198.5
717.4	197.9
717.6	197.5
717.8	198.7
718.0	197.1
718.2	192.2
718.4	190.9
718.6	187.8
718.8	187.1
719.0	185.4
719.2	183.3
719.4	180.7
719.6	181.5
719.8	181.6
720.0	181.9
720.2	179.6
720.4	179.3
720.6	179.0
720.8	178.2
721.0	177.0
721.2	175.5
721.4	175.3
721.6	174.8
721.8	172.1
722.0	168.4
722.2	167.5
722.4	166.7
722.6	167.6
722.8	165.7
723.0	163.1
723.2	160.8
723.4	159.7
723.6	161.4
723.8	161.7
724.0	159.8
724.2	158.0
724.4	156.6
724.6	155.2
724.8	156.8
725.0	156.6
725.2	155.9
725.4	155.1
725.6	151.3
725.8	148.2
726.0	146.0
726.2	143.9
726.4	145.0
726.6	146.1
726.8	145.3
727.0	143.4
727.2	141.7
727.4	138.8
727.6	137.9
727.8	137.2
728.0	138.0
728.2	137.2
728.4	137.0
728.6	136.0
728.8	135.3
729.0	134.9
729.2	133.6
729.4	132.6
729.6	132.1
729.8	131.1
730.0	129.8
730.2	131.0
730.4	128.0
730.6	126.2
730.8	125.1
731.0	122.9
731.2	120.0
731.4	120.9
731.6	119.7
731.8	120.9
732.0	124.7
732.2	124.1
732.4	122.1
732.6	119.6
732.8	117.5
733.0	115.2
733.2	114.0
733.4	113.5
733.6	113.4
733.8	113.4
734.0	114.2
734.2	112.2
734.4	110.3
734.6	109.2
734.8	108.9
735.0	108.2
735.2	107.2
735.4	106.3
735.6	105.3
735.8	105.2
736.0	107.5
736.2	106.1
736.4	104.4
736.6	103.8
736.8	102.1
737.0	100.5
737.2	100.3
737.4	99.15
737.6	98.77
737.8	98.17
738.0	98.79
738.2	98.26
738.4	97.89
738.6	96.59
738.8	94.75
739.0	91.82
739.2	91.33
739.4	91.39
739.6	91.46
739.8	91.61
740.0	92.32
740.2	92.02
740.4	91.34
740.6	90.15
740.8	88.94
741.0	87.66
741.2	89.05
741.4	88.70
741.6	88.41
741.8	89.29
742.0	88.42
742.2	85.47
742.4	84.81
742.6	83.79
742.8	84.58
743.0	84.89
743.2	84.51
743.4	83.68
743.6	82.24
743.8	82.75
744.0	83.42
744.2	81.79
744.4	79.62
744.6	78.59
744.8	77.24
745.0	76.66
745.2	76.07
745.4	75.86
745.6	74.16
745.8	75.38
746.0	74.70
746.2	72.38
746.4	70.82
746.6	70.63
746.8	70.14
747.0	72.34
747.2	73.34
747.4	72.37
747.6	70.54
747.8	71.29
748.0	70.34
748.2	70.10
748.4	70.93
748.6	69.08
748.8	66.67
749.0	66.40
749.2	65.47
749.4	66.73
749.6	67.30
749.8	68.19
750.0	68.16
750.2	67.07
750.4	66.07
750.6	66.04
750.8	64.98
751.0	64.89
751.2	64.37
751.4	63.83
751.6	63.46
751.8	63.92
752.0	64.14
752.2	62.09
752.4	60.34
752.6	57.60
752.8	57.03
753.0	56.76
753.2	57.02
753.4	57.28
753.6	57.75
753.8	56.29
754.0	56.50
754.2	55.98
754.4	55.77
754.6	56.60
754.8	56.73
755.0	55.22
755.2	55.71
755.4	55.77
755.6	53.51
755.8	52.09
756.0	51.94
756.2	51.43
756.4	52.09
756.6	53.21
756.8	52.58
757.0	51.52
757.2	52.09
757.4	52.84
757.6	51.27
757.8	49.37
758.0	47.22
758.2	46.32
758.4	46.89
758.6	48.68
758.8	49.39
759.0	47.44
759.2	44.96
759.4	44.75
759.6	44.20
759.8	45.24
760.0	47.46
760.2	47.64
760.4	47.36
760.6	48.10
760.8	47.17
761.0	46.17
761.2	45.15
761.4	43.47
761.6	42.00
761.8	42.83
762.0	43.53
762.2	44.07
762.4	43.87
762.6	44.16
762.8	43.26
763.0	42.34
763.2	40.78
763.4	40.15
763.6	39.21
763.8	39.43
764.0	38.75
764.2	38.33
764.4	38.45
764.6	38.78
764.8	39.17
765.0	39.38
765.2	38.68
765.4	39.10
765.6	39.67
765.8	39.55
766.0	38.53
766.2	37.92
766.4	37.12
766.6	37.40
766.8	38.24
767.0	39.27
767.2	38.99
767.4	37.97
767.6	36.11
767.8	34.32
768.0	33.89
768.2	34.30
768.4	34.41
768.6	34.67
768.8	34.77
769.0	33.69
769.2	33.68
769.4	33.97
769.6	33.05
769.8	33.56
770.0	34.27
770.2	33.52
770.4	32.90
770.6	32.14
770.8	30.83
771.0	31.20
771.2	31.20
771.4	32.09
771.6	32.60
771.8	32.90
772.0	32.68
772.2	33.33
772.4	31.98
772.6	31.69
772.8	30.15
773.0	29.66
773.2	28.49
773.4	29.50
773.6	29.52
773.8	30.43
774.0	30.55
774.2	30.21
774.4	29.39
774.6	29.86
774.8	29.50
775.0	29.80
775.2	29.45
775.4	27.89
775.6	27.34
775.8	27.18
776.0	26.78
776.2	26.90
776.4	26.59
776.6	26.52
776.8	25.81
777.0	25.80
777.2	25.54
777.4	26.16
777.6	27.24
777.8	27.95
778.0	27.82
778.2	27.44
778.4	26.55
778.6	25.59
778.8	25.13
779.0	25.87
779.2	26.34
779.4	26.49
779.6	26.12
779.8	24.91
780.0	24.25
780.2	24.45
780.4	23.92
780.6	23.32
780.8	22.70
781.0	22.62
781.2	23.10
781.4	22.94
781.6	23.26
781.8	23.28
782.0	23.62
782.2	23.35
782.4	22.98
782.6	21.99
782.8	22.65
783.0	22.78
783.2	23.29
783.4	22.58
783.6	22.38
783.8	21.56
784.0	21.74
784.2	21.62
784.4	21.83
784.6	21.20
784.8	21.52
785.0	21.27
785.2	21.12
785.4	21.86
785.6	21.88
785.8	21.79
786.0	22.71
786.2	21.82
786.4	20.61
786.6	20.64
786.8	20.23
787.0	20.12
787.2	20.16
787.4	19.34
787.6	19.37
787.8	20.94
788.0	21.17
788.2	20.33
788.4	19.70
788.6	19.62
788.8	19.51
789.0	20.62
789.2	20.20
789.4	19.64
789.6	19.75
789.8	19.44
790.0	18.79
790.2	19.38
790.4	19.83
790.6	20.40
790.8	20.65
791.0	19.93
791.2	19.33
791.4	19.58
791.6	19.60
791.8	19.53
792.0	19.72
792.2	19.20
792.4	19.06
792.6	18.81
792.8	18.68
793.0	18.46
793.2	18.26
793.4	18.20
793.6	18.26
793.8	18.74
794.0	19.13
794.2	18.78
794.4	18.27
794.6	18.66
794.8	18.60
795.0	19.06
795.2	18.86
795.4	17.94
795.6	18.23
795.8	19.27
796.0	19.11
796.2	19.33
796.4	18.29
796.6	17.41
796.8	17.29
797.0	17.36
797.2	16.68
797.4	17.26
797.6	17.17
797.8	17.93
798.0	18.00
798.2	17.77
798.4	17.52
798.6	17.16
798.8	17.24
799.0	17.31
799.2	17.47
799.4	16.90
799.6	16.70
799.8	16.67
800.0	16.94

