Sample:	'20211010A(EM)
File name:	R-CDs 4.FDS
Run date:	'15:55:35, 06/09/2023
Operator:	Administrator
Comment:	'

Instrument
Model:	F-4700 FL Spectrophotometer
Serial number:	2019-001
ROM Version:	5J24010 00

Instrument parameters
Measurement type:	Wavelength scan
Scan mode:	Emission
Data mode:	Fluorescence
EX WL:	520.0 nm
EM  Start WL:	540.0 nm
EM  End WL:	800.0 nm
Scan speed:	1200 nm/min
Delay:	0.0 s
EX Slit:	10.0 nm
EM Slit:	10.0 nm
PMT Voltage:	615 V
Response:	0.002 s
Corrected spectra:	Off
Shutter control:	On

Processing performed
Savitsky-Golay smoothed
Smoothing order:	3
Number of points:	7
Number of times:	1

Peak integration
Integration method:	Rectangular
Sensitivity:	1
Threshold:	1.000

Peaks
No.	Start(nm)	Apex(nm)	End(nm)	Height(Data)	Valley(nm)	Valley(Data)
1	540.0	603.2	603.8	9712	603.8	9693
2	603.8	605.6	606.6	9745	606.6	9703
3	606.6	607.6	608.4	9722	608.4	9661
4	608.4	609.2	752.4	9701	752.4	186.6
5	752.4	753.2	785.8	190.3	785.8	60.77
6	785.8	786.4	789.4	65.58	789.4	54.95
7	789.4	790.0	792.2	57.56	792.2	51.61
8	792.2	793.4	794.4	55.45	794.4	48.65
9	794.4	795.0	800.0	50.72	800.0	44.86

Data points
nm	Data
540.0	814.4
540.2	844.4
540.4	861.1
540.6	869.8
540.8	879.2
541.0	888.7
541.2	894.2
541.4	898.1
541.6	914.5
541.8	923.0
542.0	941.1
542.2	963.2
542.4	970.9
542.6	982.2
542.8	996.7
543.0	1006
543.2	1019
543.4	1037
543.6	1044
543.8	1059
544.0	1072
544.2	1085
544.4	1100
544.6	1122
544.8	1140
545.0	1154
545.2	1171
545.4	1183
545.6	1193
545.8	1206
546.0	1221
546.2	1238
546.4	1257
546.6	1268
546.8	1284
547.0	1305
547.2	1321
547.4	1343
547.6	1362
547.8	1371
548.0	1391
548.2	1409
548.4	1427
548.6	1449
548.8	1469
549.0	1482
549.2	1507
549.4	1521
549.6	1542
549.8	1553
550.0	1570
550.2	1588
550.4	1608
550.6	1629
550.8	1662
551.0	1680
551.2	1706
551.4	1727
551.6	1748
551.8	1769
552.0	1798
552.2	1826
552.4	1845
552.6	1865
552.8	1880
553.0	1896
553.2	1911
553.4	1936
553.6	1953
553.8	1978
554.0	2002
554.2	2034
554.4	2057
554.6	2090
554.8	2120
555.0	2142
555.2	2175
555.4	2199
555.6	2219
555.8	2249
556.0	2283
556.2	2313
556.4	2343
556.6	2357
556.8	2376
557.0	2405
557.2	2443
557.4	2481
557.6	2508
557.8	2524
558.0	2548
558.2	2585
558.4	2620
558.6	2654
558.8	2690
559.0	2717
559.2	2743
559.4	2770
559.6	2785
559.8	2823
560.0	2862
560.2	2900
560.4	2932
560.6	2964
560.8	2983
561.0	3026
561.2	3051
561.4	3088
561.6	3127
561.8	3161
562.0	3195
562.2	3233
562.4	3266
562.6	3305
562.8	3345
563.0	3376
563.2	3408
563.4	3440
563.6	3478
563.8	3520
564.0	3557
564.2	3594
564.4	3636
564.6	3681
564.8	3732
565.0	3775
565.2	3803
565.4	3831
565.6	3862
565.8	3904
566.0	3947
566.2	3989
566.4	4039
566.6	4087
566.8	4130
567.0	4173
567.2	4204
567.4	4243
567.6	4284
567.8	4325
568.0	4351
568.2	4386
568.4	4427
568.6	4473
568.8	4519
569.0	4555
569.2	4583
569.4	4618
569.6	4668
569.8	4724
570.0	4774
570.2	4820
570.4	4867
570.6	4905
570.8	4955
571.0	5003
571.2	5049
571.4	5088
571.6	5140
571.8	5179
572.0	5221
572.2	5269
572.4	5312
572.6	5352
572.8	5399
573.0	5431
573.2	5482
573.4	5526
573.6	5560
573.8	5612
574.0	5658
574.2	5714
574.4	5766
574.6	5805
574.8	5822
575.0	5854
575.2	5904
575.4	5956
575.6	6000
575.8	6050
576.0	6090
576.2	6125
576.4	6167
576.6	6206
576.8	6253
577.0	6292
577.2	6344
577.4	6381
577.6	6416
577.8	6456
578.0	6502
578.2	6553
578.4	6598
578.6	6641
578.8	6691
579.0	6733
579.2	6778
579.4	6837
579.6	6880
579.8	6911
580.0	6943
580.2	6977
580.4	7019
580.6	7089
580.8	7150
581.0	7184
581.2	7198
581.4	7212
581.6	7234
581.8	7293
582.0	7338
582.2	7379
582.4	7424
582.6	7452
582.8	7479
583.0	7530
583.2	7567
583.4	7597
583.6	7642
583.8	7669
584.0	7713
584.2	7749
584.4	7780
584.6	7822
584.8	7859
585.0	7900
585.2	7951
585.4	7980
585.6	8014
585.8	8050
586.0	8085
586.2	8104
586.4	8133
586.6	8139
586.8	8161
587.0	8200
587.2	8254
587.4	8287
587.6	8333
587.8	8349
588.0	8382
588.2	8418
588.4	8460
588.6	8487
588.8	8520
589.0	8552
589.2	8571
589.4	8602
589.6	8624
589.8	8628
590.0	8644
590.2	8675
590.4	8698
590.6	8755
590.8	8798
591.0	8841
591.2	8873
591.4	8920
591.6	8935
591.8	8950
592.0	8960
592.2	8973
592.4	8967
592.6	8968
592.8	9000
593.0	9041
593.2	9064
593.4	9087
593.6	9098
593.8	9112
594.0	9160
594.2	9188
594.4	9197
594.6	9212
594.8	9234
595.0	9258
595.2	9279
595.4	9286
595.6	9312
595.8	9311
596.0	9324
596.2	9346
596.4	9371
596.6	9394
596.8	9432
597.0	9433
597.2	9438
597.4	9455
597.6	9472
597.8	9493
598.0	9515
598.2	9543
598.4	9540
598.6	9549
598.8	9540
599.0	9532
599.2	9538
599.4	9559
599.6	9564
599.8	9578
600.0	9574
600.2	9578
600.4	9576
600.6	9579
600.8	9595
601.0	9610
601.2	9628
601.4	9651
601.6	9645
601.8	9638
602.0	9644
602.2	9662
602.4	9672
602.6	9698
602.8	9706
603.0	9701
603.2	9712
603.4	9708
603.6	9696
603.8	9693
604.0	9698
604.2	9696
604.4	9703
604.6	9701
604.8	9696
605.0	9707
605.2	9730
605.4	9740
605.6	9745
605.8	9741
606.0	9717
606.2	9707
606.4	9703
606.6	9703
606.8	9707
607.0	9716
607.2	9717
607.4	9717
607.6	9722
607.8	9712
608.0	9689
608.2	9682
608.4	9661
608.6	9673
608.8	9678
609.0	9688
609.2	9701
609.4	9700
609.6	9668
609.8	9654
610.0	9613
610.2	9594
610.4	9616
610.6	9623
610.8	9618
611.0	9624
611.2	9603
611.4	9582
611.6	9581
611.8	9562
612.0	9551
612.2	9559
612.4	9556
612.6	9537
612.8	9518
613.0	9493
613.2	9485
613.4	9485
613.6	9492
613.8	9477
614.0	9475
614.2	9469
614.4	9467
614.6	9451
614.8	9441
615.0	9426
615.2	9396
615.4	9374
615.6	9355
615.8	9342
616.0	9329
616.2	9332
616.4	9313
616.6	9293
616.8	9256
617.0	9241
617.2	9232
617.4	9210
617.6	9200
617.8	9180
618.0	9160
618.2	9160
618.4	9160
618.6	9136
618.8	9111
619.0	9066
619.2	9059
619.4	9040
619.6	9021
619.8	9008
620.0	8990
620.2	8969
620.4	8948
620.6	8910
620.8	8884
621.0	8858
621.2	8864
621.4	8850
621.6	8833
621.8	8808
622.0	8782
622.2	8754
622.4	8744
622.6	8715
622.8	8701
623.0	8683
623.2	8651
623.4	8629
623.6	8589
623.8	8561
624.0	8527
624.2	8505
624.4	8489
624.6	8509
624.8	8489
625.0	8472
625.2	8447
625.4	8407
625.6	8372
625.8	8356
626.0	8331
626.2	8303
626.4	8270
626.6	8219
626.8	8181
627.0	8164
627.2	8169
627.4	8155
627.6	8133
627.8	8103
628.0	8076
628.2	8046
628.4	8025
628.6	8000
628.8	7967
629.0	7941
629.2	7921
629.4	7895
629.6	7868
629.8	7846
630.0	7807
630.2	7771
630.4	7721
630.6	7694
630.8	7664
631.0	7653
631.2	7660
631.4	7647
631.6	7602
631.8	7574
632.0	7542
632.2	7503
632.4	7486
632.6	7460
632.8	7444
633.0	7433
633.2	7420
633.4	7381
633.6	7340
633.8	7289
634.0	7264
634.2	7247
634.4	7229
634.6	7196
634.8	7168
635.0	7124
635.2	7108
635.4	7097
635.6	7069
635.8	7046
636.0	7025
636.2	6998
636.4	6976
636.6	6916
636.8	6871
637.0	6831
637.2	6815
637.4	6809
637.6	6798
637.8	6758
638.0	6746
638.2	6703
638.4	6691
638.6	6666
638.8	6633
639.0	6594
639.2	6559
639.4	6520
639.6	6507
639.8	6483
640.0	6462
640.2	6449
640.4	6418
640.6	6393
640.8	6366
641.0	6323
641.2	6287
641.4	6266
641.6	6234
641.8	6218
642.0	6191
642.2	6138
642.4	6104
642.6	6080
642.8	6066
643.0	6064
643.2	6043
643.4	6004
643.6	5981
643.8	5951
644.0	5921
644.2	5882
644.4	5846
644.6	5822
644.8	5809
645.0	5787
645.2	5760
645.4	5733
645.6	5710
645.8	5677
646.0	5652
646.2	5621
646.4	5591
646.6	5568
646.8	5536
647.0	5504
647.2	5484
647.4	5473
647.6	5457
647.8	5443
648.0	5403
648.2	5364
648.4	5327
648.6	5296
648.8	5276
649.0	5263
649.2	5239
649.4	5214
649.6	5184
649.8	5147
650.0	5111
650.2	5080
650.4	5056
650.6	5031
650.8	5008
651.0	4994
651.2	4966
651.4	4959
651.6	4933
651.8	4908
652.0	4881
652.2	4855
652.4	4820
652.6	4797
652.8	4768
653.0	4742
653.2	4722
653.4	4705
653.6	4696
653.8	4671
654.0	4652
654.2	4608
654.4	4589
654.6	4562
654.8	4541
655.0	4512
655.2	4483
655.4	4455
655.6	4446
655.8	4429
656.0	4405
656.2	4377
656.4	4350
656.6	4315
656.8	4289
657.0	4275
657.2	4257
657.4	4245
657.6	4235
657.8	4202
658.0	4182
658.2	4154
658.4	4134
658.6	4113
658.8	4093
659.0	4067
659.2	4051
659.4	4031
659.6	4023
659.8	3995
660.0	3973
660.2	3942
660.4	3908
660.6	3878
660.8	3856
661.0	3838
661.2	3834
661.4	3823
661.6	3794
661.8	3771
662.0	3738
662.2	3723
662.4	3710
662.6	3685
662.8	3662
663.0	3637
663.2	3603
663.4	3588
663.6	3577
663.8	3548
664.0	3533
664.2	3504
664.4	3481
664.6	3478
664.8	3467
665.0	3447
665.2	3428
665.4	3402
665.6	3387
665.8	3376
666.0	3362
666.2	3344
666.4	3329
666.6	3308
666.8	3277
667.0	3255
667.2	3226
667.4	3195
667.6	3172
667.8	3163
668.0	3156
668.2	3151
668.4	3135
668.6	3117
668.8	3094
669.0	3072
669.2	3058
669.4	3022
669.6	3006
669.8	2994
670.0	2986
670.2	2965
670.4	2957
670.6	2952
670.8	2947
671.0	2928
671.2	2903
671.4	2872
671.6	2852
671.8	2842
672.0	2830
672.2	2808
672.4	2786
672.6	2771
672.8	2753
673.0	2731
673.2	2719
673.4	2704
673.6	2691
673.8	2674
674.0	2649
674.2	2631
674.4	2624
674.6	2614
674.8	2613
675.0	2586
675.2	2558
675.4	2543
675.6	2529
675.8	2502
676.0	2487
676.2	2471
676.4	2467
676.6	2458
676.8	2450
677.0	2432
677.2	2414
677.4	2397
677.6	2389
677.8	2366
678.0	2354
678.2	2348
678.4	2346
678.6	2325
678.8	2311
679.0	2289
679.2	2265
679.4	2243
679.6	2232
679.8	2220
680.0	2216
680.2	2210
680.4	2192
680.6	2168
680.8	2154
681.0	2143
681.2	2123
681.4	2103
681.6	2089
681.8	2083
682.0	2076
682.2	2066
682.4	2056
682.6	2045
682.8	2034
683.0	2023
683.2	2001
683.4	1977
683.6	1973
683.8	1961
684.0	1948
684.2	1946
684.4	1932
684.6	1911
684.8	1896
685.0	1884
685.2	1877
685.4	1870
685.6	1859
685.8	1849
686.0	1834
686.2	1832
686.4	1829
686.6	1813
686.8	1798
687.0	1775
687.2	1756
687.4	1741
687.6	1735
687.8	1734
688.0	1730
688.2	1722
688.4	1711
688.6	1698
688.8	1689
689.0	1679
689.2	1668
689.4	1664
689.6	1647
689.8	1636
690.0	1625
690.2	1606
690.4	1593
690.6	1590
690.8	1585
691.0	1570
691.2	1559
691.4	1548
691.6	1542
691.8	1541
692.0	1534
692.2	1516
692.4	1505
692.6	1493
692.8	1487
693.0	1476
693.2	1470
693.4	1459
693.6	1456
693.8	1450
694.0	1443
694.2	1433
694.4	1421
694.6	1412
694.8	1407
695.0	1397
695.2	1392
695.4	1386
695.6	1361
695.8	1350
696.0	1340
696.2	1329
696.4	1322
696.6	1321
696.8	1309
697.0	1308
697.2	1308
697.4	1302
697.6	1289
697.8	1285
698.0	1277
698.2	1269
698.4	1255
698.6	1243
698.8	1233
699.0	1235
699.2	1238
699.4	1240
699.6	1229
699.8	1217
700.0	1204
700.2	1201
700.4	1199
700.6	1197
700.8	1189
701.0	1182
701.2	1176
701.4	1175
701.6	1167
701.8	1157
702.0	1142
702.2	1139
702.4	1130
702.6	1129
702.8	1116
703.0	1102
703.2	1096
703.4	1094
703.6	1089
703.8	1088
704.0	1075
704.2	1066
704.4	1063
704.6	1058
704.8	1058
705.0	1060
705.2	1051
705.4	1047
705.6	1037
705.8	1024
706.0	1015
706.2	1013
706.4	1005
706.6	997.4
706.8	993.5
707.0	988.5
707.2	989.5
707.4	984.1
707.6	973.7
707.8	959.2
708.0	952.9
708.2	946.4
708.4	943.0
708.6	936.9
708.8	932.7
709.0	923.5
709.2	917.5
709.4	908.6
709.6	899.9
709.8	891.9
710.0	885.9
710.2	882.7
710.4	882.0
710.6	886.8
710.8	885.4
711.0	876.7
711.2	864.5
711.4	859.2
711.6	853.4
711.8	852.1
712.0	846.0
712.2	838.2
712.4	833.2
712.6	832.0
712.8	829.9
713.0	824.1
713.2	809.8
713.4	802.4
713.6	797.6
713.8	792.1
714.0	788.2
714.2	782.0
714.4	776.0
714.6	777.2
714.8	773.3
715.0	770.7
715.2	765.0
715.4	758.5
715.6	752.5
715.8	748.1
716.0	740.0
716.2	736.7
716.4	729.1
716.6	726.5
716.8	721.2
717.0	718.1
717.2	711.4
717.4	705.2
717.6	697.0
717.8	685.7
718.0	680.4
718.2	674.8
718.4	670.3
718.6	669.9
718.8	669.3
719.0	664.8
719.2	666.6
719.4	660.6
719.6	652.9
719.8	647.8
720.0	639.8
720.2	639.1
720.4	640.9
720.6	631.2
720.8	626.1
721.0	617.1
721.2	608.8
721.4	603.9
721.6	600.2
721.8	594.1
722.0	595.4
722.2	595.6
722.4	592.6
722.6	588.1
722.8	584.3
723.0	579.3
723.2	576.1
723.4	573.7
723.6	568.4
723.8	562.4
724.0	556.1
724.2	550.4
724.4	548.3
724.6	543.4
724.8	541.8
725.0	539.3
725.2	536.0
725.4	533.8
725.6	533.2
725.8	526.4
726.0	519.6
726.2	512.2
726.4	509.3
726.6	502.8
726.8	499.6
727.0	496.8
727.2	492.6
727.4	486.8
727.6	485.9
727.8	479.6
728.0	476.5
728.2	475.4
728.4	472.6
728.6	471.1
728.8	472.4
729.0	467.1
729.2	463.4
729.4	454.0
729.6	448.7
729.8	443.3
730.0	443.3
730.2	440.6
730.4	433.5
730.6	425.6
730.8	423.9
731.0	424.0
731.2	425.9
731.4	426.3
731.6	417.0
731.8	413.0
732.0	405.4
732.2	406.6
732.4	402.0
732.6	399.7
732.8	396.6
733.0	393.2
733.2	387.7
733.4	388.3
733.6	384.8
733.8	383.1
734.0	381.6
734.2	377.6
734.4	373.7
734.6	372.7
734.8	372.4
735.0	369.5
735.2	369.7
735.4	368.3
735.6	363.6
735.8	360.6
736.0	355.6
736.2	349.3
736.4	344.6
736.6	339.9
736.8	337.3
737.0	336.7
737.2	336.2
737.4	338.1
737.6	337.3
737.8	334.8
738.0	332.4
738.2	326.8
738.4	322.2
738.6	318.7
738.8	319.4
739.0	318.8
739.2	317.9
739.4	314.6
739.6	311.3
739.8	305.3
740.0	304.3
740.2	300.6
740.4	296.9
740.6	295.6
740.8	295.8
741.0	295.6
741.2	297.2
741.4	297.0
741.6	293.0
741.8	288.3
742.0	282.8
742.2	277.2
742.4	275.5
742.6	274.4
742.8	273.8
743.0	275.9
743.2	274.2
743.4	270.5
743.6	268.4
743.8	267.2
744.0	265.0
744.2	265.8
744.4	262.5
744.6	260.8
744.8	259.0
745.0	258.7
745.2	255.0
745.4	253.0
745.6	250.4
745.8	249.2
746.0	244.6
746.2	241.8
746.4	239.0
746.6	235.2
746.8	232.6
747.0	230.1
747.2	226.6
747.4	226.4
747.6	227.7
747.8	228.6
748.0	228.8
748.2	228.4
748.4	225.1
748.6	220.4
748.8	216.5
749.0	215.4
749.2	215.4
749.4	216.5
749.6	217.7
749.8	212.7
750.0	208.2
750.2	205.9
750.4	204.7
750.6	205.6
750.8	205.3
751.0	200.6
751.2	197.6
751.4	194.5
751.6	191.8
751.8	192.1
752.0	190.3
752.2	188.7
752.4	186.6
752.6	187.3
752.8	187.2
753.0	188.3
753.2	190.3
753.4	190.2
753.6	188.3
753.8	185.9
754.0	181.8
754.2	177.3
754.4	176.3
754.6	175.9
754.8	175.1
755.0	173.0
755.2	172.3
755.4	169.7
755.6	170.2
755.8	170.1
756.0	167.2
756.2	164.9
756.4	163.2
756.6	160.6
756.8	161.5
757.0	162.5
757.2	163.1
757.4	161.9
757.6	161.3
757.8	159.5
758.0	157.4
758.2	156.2
758.4	155.6
758.6	152.8
758.8	150.1
759.0	149.0
759.2	148.8
759.4	151.1
759.6	152.0
759.8	151.3
760.0	148.8
760.2	146.8
760.4	144.6
760.6	143.9
760.8	142.8
761.0	140.6
761.2	137.8
761.4	136.4
761.6	135.5
761.8	133.5
762.0	135.3
762.2	137.0
762.4	136.3
762.6	135.0
762.8	133.6
763.0	129.9
763.2	130.3
763.4	130.4
763.6	128.5
763.8	127.4
764.0	128.0
764.2	126.4
764.4	127.1
764.6	125.7
764.8	123.0
765.0	122.3
765.2	120.8
765.4	119.2
765.6	119.7
765.8	116.8
766.0	115.7
766.2	116.3
766.4	115.2
766.6	114.5
766.8	113.0
767.0	110.8
767.2	110.2
767.4	111.0
767.6	109.3
767.8	107.9
768.0	106.7
768.2	106.6
768.4	105.4
768.6	105.4
768.8	104.4
769.0	104.7
769.2	106.4
769.4	107.3
769.6	105.9
769.8	102.6
770.0	101.0
770.2	99.79
770.4	101.5
770.6	102.5
770.8	102.8
771.0	99.46
771.2	98.94
771.4	97.35
771.6	96.29
771.8	96.09
772.0	96.53
772.2	95.04
772.4	95.04
772.6	92.47
772.8	91.30
773.0	90.63
773.2	90.91
773.4	90.68
773.6	89.28
773.8	86.55
774.0	84.97
774.2	83.92
774.4	86.19
774.6	89.24
774.8	89.35
775.0	87.48
775.2	83.79
775.4	82.56
775.6	83.26
775.8	84.38
776.0	84.62
776.2	84.60
776.4	82.50
776.6	83.10
776.8	81.36
777.0	78.99
777.2	78.67
777.4	78.33
777.6	76.72
777.8	76.21
778.0	76.76
778.2	75.90
778.4	76.83
778.6	76.88
778.8	75.33
779.0	73.31
779.2	73.70
779.4	72.00
779.6	72.77
779.8	72.79
780.0	72.52
780.2	73.78
780.4	73.23
780.6	72.72
780.8	72.78
781.0	70.93
781.2	69.70
781.4	69.92
781.6	68.64
781.8	67.52
782.0	67.53
782.2	67.37
782.4	66.54
782.6	64.86
782.8	66.00
783.0	65.18
783.2	66.20
783.4	66.38
783.6	66.66
783.8	65.85
784.0	65.52
784.2	64.10
784.4	64.09
784.6	62.51
784.8	63.46
785.0	63.74
785.2	62.75
785.4	61.88
785.6	61.43
785.8	60.77
786.0	62.30
786.2	64.32
786.4	65.58
786.6	64.29
786.8	62.23
787.0	59.87
787.2	59.02
787.4	59.16
787.6	59.78
787.8	59.81
788.0	60.05
788.2	59.66
788.4	60.90
788.6	60.03
788.8	59.47
789.0	57.31
789.2	55.03
789.4	54.95
789.6	56.44
789.8	56.83
790.0	57.56
790.2	56.86
790.4	55.57
790.6	56.19
790.8	57.04
791.0	56.35
791.2	55.99
791.4	54.49
791.6	53.32
791.8	52.66
792.0	52.29
792.2	51.61
792.4	52.63
792.6	52.42
792.8	52.54
793.0	54.17
793.2	54.55
793.4	55.45
793.6	55.08
793.8	52.01
794.0	49.39
794.2	48.88
794.4	48.65
794.6	50.33
794.8	50.15
795.0	50.72
795.2	49.53
795.4	49.37
795.6	49.62
795.8	49.31
796.0	47.93
796.2	48.79
796.4	46.49
796.6	45.60
796.8	45.68
797.0	46.56
797.2	47.32
797.4	48.30
797.6	47.03
797.8	45.12
798.0	44.76
798.2	45.79
798.4	46.66
798.6	47.39
798.8	47.07
799.0	46.96
799.2	46.95
799.4	46.27
799.6	45.29
799.8	44.66
800.0	44.86

