Sample:	'20211010A(EM)
File name:	R-CDs 1.FDS
Run date:	'15:36:27, 06/09/2023
Operator:	Administrator
Comment:	'

Instrument
Model:	F-4700 FL Spectrophotometer
Serial number:	2019-001
ROM Version:	5J24010 00

Instrument parameters
Measurement type:	Wavelength scan
Scan mode:	Emission
Data mode:	Fluorescence
EX WL:	520.0 nm
EM  Start WL:	540.0 nm
EM  End WL:	800.0 nm
Scan speed:	1200 nm/min
Delay:	0.0 s
EX Slit:	10.0 nm
EM Slit:	10.0 nm
PMT Voltage:	650 V
Response:	0.002 s
Corrected spectra:	Off
Shutter control:	On

Processing performed
Savitsky-Golay smoothed
Smoothing order:	3
Number of points:	7
Number of times:	1

Peak integration
Integration method:	Rectangular
Sensitivity:	1
Threshold:	1.000

Peaks
No.	Start(nm)	Apex(nm)	End(nm)	Height(Data)	Valley(nm)	Valley(Data)
1	540.0	603.0	603.8	8321	603.8	8273
2	603.8	606.4	743.0	8369	743.0	225.4
3	743.0	743.8	770.8	234.5	770.8	84.14
4	770.8	771.4	788.4	88.66	788.4	48.68
5	788.4	790.4	791.4	52.40	791.4	46.75
6	791.4	792.4	793.4	49.45	793.4	44.22
7	793.4	794.0	795.6	46.80	795.6	41.69
8	795.6	796.4	797.0	45.32	797.0	42.11

Data points
nm	Data
540.0	786.7
540.2	794.7
540.4	801.6
540.6	808.3
540.8	816.0
541.0	825.8
541.2	834.7
541.4	844.6
541.6	864.5
541.8	884.7
542.0	898.0
542.2	908.4
542.4	911.4
542.6	919.7
542.8	932.1
543.0	950.7
543.2	957.6
543.4	973.7
543.6	986.2
543.8	1003
544.0	1020
544.2	1033
544.4	1040
544.6	1052
544.8	1063
545.0	1073
545.2	1088
545.4	1091
545.6	1103
545.8	1116
546.0	1128
546.2	1141
546.4	1162
546.6	1175
546.8	1188
547.0	1196
547.2	1209
547.4	1224
547.6	1246
547.8	1270
548.0	1284
548.2	1292
548.4	1302
548.6	1302
548.8	1314
549.0	1329
549.2	1351
549.4	1379
549.6	1402
549.8	1416
550.0	1435
550.2	1450
550.4	1471
550.6	1486
550.8	1502
551.0	1523
551.2	1543
551.4	1562
551.6	1572
551.8	1576
552.0	1586
552.2	1606
552.4	1639
552.6	1666
552.8	1683
553.0	1704
553.2	1725
553.4	1740
553.6	1765
553.8	1785
554.0	1806
554.2	1828
554.4	1853
554.6	1865
554.8	1880
555.0	1899
555.2	1914
555.4	1944
555.6	1971
555.8	1998
556.0	2028
556.2	2042
556.4	2049
556.6	2075
556.8	2091
557.0	2127
557.2	2166
557.4	2193
557.6	2211
557.8	2228
558.0	2242
558.2	2267
558.4	2286
558.6	2310
558.8	2334
559.0	2359
559.2	2392
559.4	2423
559.6	2447
559.8	2474
560.0	2503
560.2	2525
560.4	2552
560.6	2579
560.8	2610
561.0	2637
561.2	2677
561.4	2706
561.6	2739
561.8	2768
562.0	2795
562.2	2816
562.4	2843
562.6	2863
562.8	2882
563.0	2918
563.2	2956
563.4	2992
563.6	3032
563.8	3075
564.0	3103
564.2	3138
564.4	3163
564.6	3185
564.8	3222
565.0	3258
565.2	3299
565.4	3329
565.6	3364
565.8	3392
566.0	3425
566.2	3440
566.4	3469
566.6	3510
566.8	3560
567.0	3603
567.2	3643
567.4	3663
567.6	3680
567.8	3716
568.0	3747
568.2	3782
568.4	3828
568.6	3854
568.8	3888
569.0	3931
569.2	3968
569.4	3999
569.6	4036
569.8	4075
570.0	4121
570.2	4167
570.4	4202
570.6	4233
570.8	4255
571.0	4288
571.2	4322
571.4	4363
571.6	4408
571.8	4467
572.0	4529
572.2	4560
572.4	4596
572.6	4615
572.8	4640
573.0	4679
573.2	4725
573.4	4762
573.6	4816
573.8	4852
574.0	4893
574.2	4932
574.4	4953
574.6	4985
574.8	5031
575.0	5074
575.2	5112
575.4	5164
575.6	5213
575.8	5262
576.0	5295
576.2	5314
576.4	5328
576.6	5362
576.8	5401
577.0	5454
577.2	5474
577.4	5509
577.6	5538
577.8	5575
578.0	5613
578.2	5668
578.4	5698
578.6	5746
578.8	5771
579.0	5798
579.2	5826
579.4	5871
579.6	5921
579.8	5950
580.0	5974
580.2	5996
580.4	6039
580.6	6105
580.8	6154
581.0	6167
581.2	6192
581.4	6222
581.6	6274
581.8	6327
582.0	6354
582.2	6367
582.4	6381
582.6	6423
582.8	6450
583.0	6503
583.2	6549
583.4	6581
583.6	6604
583.8	6635
584.0	6631
584.2	6661
584.4	6679
584.6	6716
584.8	6742
585.0	6769
585.2	6801
585.4	6825
585.6	6866
585.8	6918
586.0	6951
586.2	6979
586.4	6994
586.6	6993
586.8	7016
587.0	7040
587.2	7081
587.4	7127
587.6	7170
587.8	7212
588.0	7233
588.2	7254
588.4	7262
588.6	7285
588.8	7314
589.0	7356
589.2	7383
589.4	7387
589.6	7371
589.8	7378
590.0	7408
590.2	7437
590.4	7485
590.6	7500
590.8	7516
591.0	7546
591.2	7601
591.4	7605
591.6	7641
591.8	7652
592.0	7660
592.2	7674
592.4	7715
592.6	7709
592.8	7757
593.0	7790
593.2	7807
593.4	7820
593.6	7836
593.8	7843
594.0	7876
594.2	7907
594.4	7917
594.6	7918
594.8	7919
595.0	7923
595.2	7951
595.4	7970
595.6	7981
595.8	7983
596.0	7982
596.2	7982
596.4	8016
596.6	8042
596.8	8071
597.0	8099
597.2	8124
597.4	8130
597.6	8130
597.8	8113
598.0	8108
598.2	8131
598.4	8158
598.6	8164
598.8	8180
599.0	8173
599.2	8188
599.4	8207
599.6	8229
599.8	8250
600.0	8256
600.2	8249
600.4	8245
600.6	8229
600.8	8233
601.0	8262
601.2	8275
601.4	8281
601.6	8290
601.8	8295
602.0	8298
602.2	8314
602.4	8296
602.6	8296
602.8	8311
603.0	8321
603.2	8320
603.4	8310
603.6	8274
603.8	8273
604.0	8292
604.2	8305
604.4	8326
604.6	8324
604.8	8321
605.0	8330
605.2	8336
605.4	8335
605.6	8328
605.8	8323
606.0	8333
606.2	8349
606.4	8369
606.6	8361
606.8	8339
607.0	8308
607.2	8296
607.4	8289
607.6	8309
607.8	8318
608.0	8310
608.2	8294
608.4	8291
608.6	8289
608.8	8295
609.0	8318
609.2	8299
609.4	8290
609.6	8272
609.8	8245
610.0	8242
610.2	8236
610.4	8225
610.6	8234
610.8	8232
611.0	8242
611.2	8243
611.4	8222
611.6	8204
611.8	8183
612.0	8162
612.2	8169
612.4	8160
612.6	8169
612.8	8166
613.0	8160
613.2	8149
613.4	8129
613.6	8116
613.8	8102
614.0	8087
614.2	8071
614.4	8056
614.6	8041
614.8	8042
615.0	8042
615.2	8054
615.4	8035
615.6	8015
615.8	7990
616.0	7965
616.2	7965
616.4	7955
616.6	7939
616.8	7910
617.0	7898
617.2	7885
617.4	7881
617.6	7851
617.8	7844
618.0	7817
618.2	7810
618.4	7799
618.6	7771
618.8	7727
619.0	7712
619.2	7700
619.4	7713
619.6	7705
619.8	7682
620.0	7651
620.2	7636
620.4	7633
620.6	7644
620.8	7601
621.0	7581
621.2	7559
621.4	7546
621.6	7549
621.8	7559
622.0	7521
622.2	7481
622.4	7438
622.6	7411
622.8	7389
623.0	7395
623.2	7377
623.4	7345
623.6	7347
623.8	7338
624.0	7316
624.2	7316
624.4	7275
624.6	7240
624.8	7231
625.0	7218
625.2	7200
625.4	7206
625.6	7151
625.8	7131
626.0	7107
626.2	7080
626.4	7056
626.6	7040
626.8	6984
627.0	6973
627.2	6974
627.4	6953
627.6	6943
627.8	6907
628.0	6870
628.2	6852
628.4	6857
628.6	6828
628.8	6803
629.0	6768
629.2	6738
629.4	6695
629.6	6677
629.8	6643
630.0	6633
630.2	6630
630.4	6615
630.6	6585
630.8	6557
631.0	6532
631.2	6529
631.4	6515
631.6	6494
631.8	6462
632.0	6419
632.2	6402
632.4	6379
632.6	6368
632.8	6329
633.0	6297
633.2	6268
633.4	6249
633.6	6216
633.8	6214
634.0	6192
634.2	6185
634.4	6153
634.6	6108
634.8	6063
635.0	6055
635.2	6035
635.4	6018
635.6	6002
635.8	5973
636.0	5951
636.2	5946
636.4	5919
636.6	5910
636.8	5890
637.0	5856
637.2	5815
637.4	5775
637.6	5747
637.8	5747
638.0	5730
638.2	5720
638.4	5712
638.6	5698
638.8	5679
639.0	5650
639.2	5607
639.4	5565
639.6	5549
639.8	5517
640.0	5491
640.2	5471
640.4	5453
640.6	5437
640.8	5414
641.0	5367
641.2	5346
641.4	5335
641.6	5328
641.8	5297
642.0	5255
642.2	5210
642.4	5193
642.6	5179
642.8	5166
643.0	5141
643.2	5120
643.4	5095
643.6	5085
643.8	5062
644.0	5032
644.2	5002
644.4	4961
644.6	4925
644.8	4909
645.0	4891
645.2	4877
645.4	4849
645.6	4815
645.8	4799
646.0	4779
646.2	4770
646.4	4753
646.6	4722
646.8	4691
647.0	4680
647.2	4674
647.4	4659
647.6	4636
647.8	4609
648.0	4575
648.2	4550
648.4	4541
648.6	4513
648.8	4491
649.0	4467
649.2	4443
649.4	4434
649.6	4436
649.8	4415
650.0	4387
650.2	4353
650.4	4320
650.6	4296
650.8	4293
651.0	4259
651.2	4235
651.4	4209
651.6	4192
651.8	4169
652.0	4153
652.2	4131
652.4	4120
652.6	4089
652.8	4070
653.0	4053
653.2	4034
653.4	4020
653.6	4008
653.8	3984
654.0	3946
654.2	3925
654.4	3896
654.6	3872
654.8	3867
655.0	3865
655.2	3836
655.4	3812
655.6	3776
655.8	3755
656.0	3740
656.2	3727
656.4	3696
656.6	3659
656.8	3636
657.0	3628
657.2	3625
657.4	3619
657.6	3603
657.8	3581
658.0	3557
658.2	3548
658.4	3523
658.6	3498
658.8	3476
659.0	3433
659.2	3411
659.4	3413
659.6	3407
659.8	3394
660.0	3388
660.2	3351
660.4	3343
660.6	3322
660.8	3307
661.0	3282
661.2	3270
661.4	3238
661.6	3219
661.8	3202
662.0	3200
662.2	3205
662.4	3191
662.6	3166
662.8	3131
663.0	3097
663.2	3069
663.4	3051
663.6	3026
663.8	3010
664.0	2993
664.2	2984
664.4	2975
664.6	2963
664.8	2945
665.0	2927
665.2	2903
665.4	2886
665.6	2874
665.8	2863
666.0	2859
666.2	2847
666.4	2821
666.6	2806
666.8	2796
667.0	2785
667.2	2770
667.4	2753
667.6	2735
667.8	2714
668.0	2701
668.2	2682
668.4	2656
668.6	2645
668.8	2630
669.0	2608
669.2	2607
669.4	2597
669.6	2582
669.8	2563
670.0	2535
670.2	2514
670.4	2500
670.6	2487
670.8	2479
671.0	2458
671.2	2446
671.4	2444
671.6	2435
671.8	2431
672.0	2418
672.2	2385
672.4	2367
672.6	2365
672.8	2350
673.0	2340
673.2	2318
673.4	2294
673.6	2278
673.8	2278
674.0	2263
674.2	2259
674.4	2254
674.6	2249
674.8	2231
675.0	2215
675.2	2189
675.4	2174
675.6	2159
675.8	2142
676.0	2133
676.2	2119
676.4	2109
676.6	2098
676.8	2079
677.0	2070
677.2	2067
677.4	2063
677.6	2058
677.8	2038
678.0	2019
678.2	2007
678.4	1987
678.6	1980
678.8	1967
679.0	1954
679.2	1938
679.4	1923
679.6	1908
679.8	1901
680.0	1891
680.2	1879
680.4	1865
680.6	1857
680.8	1844
681.0	1829
681.2	1810
681.4	1789
681.6	1776
681.8	1768
682.0	1763
682.2	1758
682.4	1753
682.6	1752
682.8	1739
683.0	1729
683.2	1714
683.4	1702
683.6	1684
683.8	1673
684.0	1656
684.2	1649
684.4	1649
684.6	1655
684.8	1649
685.0	1631
685.2	1599
685.4	1582
685.6	1577
685.8	1582
686.0	1578
686.2	1570
686.4	1555
686.6	1536
686.8	1528
687.0	1522
687.2	1497
687.4	1497
687.6	1487
687.8	1473
688.0	1467
688.2	1459
688.4	1437
688.6	1432
688.8	1420
689.0	1410
689.2	1398
689.4	1392
689.6	1382
689.8	1372
690.0	1365
690.2	1357
690.4	1352
690.6	1350
690.8	1347
691.0	1332
691.2	1322
691.4	1314
691.6	1315
691.8	1310
692.0	1308
692.2	1302
692.4	1291
692.6	1280
692.8	1268
693.0	1249
693.2	1247
693.4	1251
693.6	1253
693.8	1257
694.0	1239
694.2	1220
694.4	1206
694.6	1199
694.8	1193
695.0	1188
695.2	1173
695.4	1161
695.6	1152
695.8	1149
696.0	1146
696.2	1152
696.4	1151
696.6	1144
696.8	1132
697.0	1118
697.2	1111
697.4	1106
697.6	1102
697.8	1093
698.0	1083
698.2	1077
698.4	1081
698.6	1075
698.8	1072
699.0	1063
699.2	1054
699.4	1050
699.6	1049
699.8	1038
700.0	1027
700.2	1021
700.4	1013
700.6	1018
700.8	1023
701.0	1016
701.2	1006
701.4	1001
701.6	985.3
701.8	982.2
702.0	978.7
702.2	972.8
702.4	965.7
702.6	963.5
702.8	956.7
703.0	955.6
703.2	947.8
703.4	939.1
703.6	927.3
703.8	916.9
704.0	917.7
704.2	916.1
704.4	914.6
704.6	909.7
704.8	903.6
705.0	896.9
705.2	895.3
705.4	887.7
705.6	880.4
705.8	872.5
706.0	865.7
706.2	854.4
706.4	843.6
706.6	838.1
706.8	838.8
707.0	841.6
707.2	837.9
707.4	829.1
707.6	828.4
707.8	826.7
708.0	821.9
708.2	812.7
708.4	812.7
708.6	810.7
708.8	816.2
709.0	816.2
709.2	807.8
709.4	791.6
709.6	786.0
709.8	777.4
710.0	769.4
710.2	764.1
710.4	765.5
710.6	759.1
710.8	755.9
711.0	751.8
711.2	745.9
711.4	736.2
711.6	730.3
711.8	726.7
712.0	726.0
712.2	720.5
712.4	718.9
712.6	713.2
712.8	708.2
713.0	703.5
713.2	698.1
713.4	686.4
713.6	682.8
713.8	683.3
714.0	682.2
714.2	680.2
714.4	671.2
714.6	656.0
714.8	651.5
715.0	648.4
715.2	646.1
715.4	649.6
715.6	645.2
715.8	642.2
716.0	638.6
716.2	635.1
716.4	624.6
716.6	620.0
716.8	615.9
717.0	613.5
717.2	610.0
717.4	611.8
717.6	603.7
717.8	597.8
718.0	591.6
718.2	583.9
718.4	579.4
718.6	578.9
718.8	577.9
719.0	571.6
719.2	568.2
719.4	564.0
719.6	562.5
719.8	562.6
720.0	560.1
720.2	556.9
720.4	549.6
720.6	542.8
720.8	538.0
721.0	532.3
721.2	522.9
721.4	519.7
721.6	511.0
721.8	508.5
722.0	507.7
722.2	508.7
722.4	503.5
722.6	502.8
722.8	497.5
723.0	492.4
723.2	488.8
723.4	479.8
723.6	473.4
723.8	472.3
724.0	471.8
724.2	473.1
724.4	470.3
724.6	463.2
724.8	462.1
725.0	461.0
725.2	457.5
725.4	457.0
725.6	450.1
725.8	444.5
726.0	442.1
726.2	438.5
726.4	432.0
726.6	432.4
726.8	430.2
727.0	425.5
727.2	425.3
727.4	420.3
727.6	418.1
727.8	419.8
728.0	417.6
728.2	413.8
728.4	409.4
728.6	401.6
728.8	396.1
729.0	395.0
729.2	389.5
729.4	384.6
729.6	382.6
729.8	379.3
730.0	379.1
730.2	379.8
730.4	375.2
730.6	373.4
730.8	372.4
731.0	370.7
731.2	368.4
731.4	364.1
731.6	358.4
731.8	354.2
732.0	350.3
732.2	347.7
732.4	340.2
732.6	336.5
732.8	338.0
733.0	336.6
733.2	337.6
733.4	332.7
733.6	328.7
733.8	330.2
734.0	333.8
734.2	330.3
734.4	328.6
734.6	320.0
734.8	316.8
735.0	316.7
735.2	310.9
735.4	308.6
735.6	308.4
735.8	304.8
736.0	303.1
736.2	300.2
736.4	288.7
736.6	286.0
736.8	286.6
737.0	289.2
737.2	292.2
737.4	295.3
737.6	290.8
737.8	283.2
738.0	277.9
738.2	273.3
738.4	267.9
738.6	271.5
738.8	276.9
739.0	275.2
739.2	274.0
739.4	269.6
739.6	262.9
739.8	259.3
740.0	256.5
740.2	253.0
740.4	255.6
740.6	255.5
740.8	255.9
741.0	254.1
741.2	251.8
741.4	247.6
741.6	245.1
741.8	239.0
742.0	236.4
742.2	237.2
742.4	236.5
742.6	232.8
742.8	228.4
743.0	225.4
743.2	227.9
743.4	232.3
743.6	233.7
743.8	234.5
744.0	233.8
744.2	232.4
744.4	229.2
744.6	226.7
744.8	218.9
745.0	213.4
745.2	213.1
745.4	210.2
745.6	211.4
745.8	211.9
746.0	208.4
746.2	204.9
746.4	202.0
746.6	198.3
746.8	201.2
747.0	201.6
747.2	199.2
747.4	195.5
747.6	192.1
747.8	192.1
748.0	194.7
748.2	195.4
748.4	191.4
748.6	190.8
748.8	189.3
749.0	186.4
749.2	184.6
749.4	182.3
749.6	184.0
749.8	184.6
750.0	181.2
750.2	179.4
750.4	173.2
750.6	169.2
750.8	171.1
751.0	168.4
751.2	166.4
751.4	171.9
751.6	170.9
751.8	169.9
752.0	169.1
752.2	165.8
752.4	164.2
752.6	166.0
752.8	166.1
753.0	166.6
753.2	162.7
753.4	160.4
753.6	160.0
753.8	159.5
754.0	158.1
754.2	156.1
754.4	154.2
754.6	153.3
754.8	151.7
755.0	150.3
755.2	146.8
755.4	145.0
755.6	147.5
755.8	148.2
756.0	145.7
756.2	146.4
756.4	143.3
756.6	145.4
756.8	145.6
757.0	143.6
757.2	140.5
757.4	142.0
757.6	139.4
757.8	142.2
758.0	141.5
758.2	137.9
758.4	136.5
758.6	136.2
758.8	137.6
759.0	137.6
759.2	136.6
759.4	132.8
759.6	131.1
759.8	130.7
760.0	131.4
760.2	129.4
760.4	127.2
760.6	124.0
760.8	123.7
761.0	124.0
761.2	121.7
761.4	120.2
761.6	119.7
761.8	117.6
762.0	118.4
762.2	118.3
762.4	116.9
762.6	113.3
762.8	113.9
763.0	112.8
763.2	111.0
763.4	111.3
763.6	110.6
763.8	108.1
764.0	107.9
764.2	108.6
764.4	108.1
764.6	108.8
764.8	109.3
765.0	108.8
765.2	106.6
765.4	105.9
765.6	105.9
765.8	105.9
766.0	104.1
766.2	102.7
766.4	102.4
766.6	101.2
766.8	103.6
767.0	103.8
767.2	99.16
767.4	98.35
767.6	97.42
767.8	95.12
768.0	95.36
768.2	93.19
768.4	91.68
768.6	91.99
768.8	92.95
769.0	94.04
769.2	93.98
769.4	91.83
769.6	91.85
769.8	89.87
770.0	90.33
770.2	90.13
770.4	89.02
770.6	85.25
770.8	84.14
771.0	84.93
771.2	88.07
771.4	88.66
771.6	88.31
771.8	86.77
772.0	85.37
772.2	85.01
772.4	82.24
772.6	79.75
772.8	77.75
773.0	78.26
773.2	79.29
773.4	81.14
773.6	81.05
773.8	82.16
774.0	81.12
774.2	77.99
774.4	76.04
774.6	77.09
774.8	77.97
775.0	77.32
775.2	75.06
775.4	71.32
775.6	71.82
775.8	74.01
776.0	75.15
776.2	74.62
776.4	71.88
776.6	71.34
776.8	72.08
777.0	71.08
777.2	69.73
777.4	68.37
777.6	66.88
777.8	67.66
778.0	68.84
778.2	69.85
778.4	68.65
778.6	68.98
778.8	68.82
779.0	67.00
779.2	67.68
779.4	66.85
779.6	65.82
779.8	67.07
780.0	66.83
780.2	65.78
780.4	65.11
780.6	62.62
780.8	60.56
781.0	60.36
781.2	60.79
781.4	61.55
781.6	61.29
781.8	61.19
782.0	59.98
782.2	60.16
782.4	60.73
782.6	60.13
782.8	58.77
783.0	60.02
783.2	60.18
783.4	59.99
783.6	59.47
783.8	58.12
784.0	55.86
784.2	56.01
784.4	55.31
784.6	54.97
784.8	55.62
785.0	56.73
785.2	55.77
785.4	55.44
785.6	54.24
785.8	53.86
786.0	54.34
786.2	55.72
786.4	55.48
786.6	54.81
786.8	52.96
787.0	51.97
787.2	51.06
787.4	52.80
787.6	53.56
787.8	52.84
788.0	51.20
788.2	50.25
788.4	48.68
788.6	49.50
788.8	49.16
789.0	49.01
789.2	50.03
789.4	51.31
789.6	50.48
789.8	51.55
790.0	51.07
790.2	51.36
790.4	52.40
790.6	51.98
790.8	48.81
791.0	47.51
791.2	47.35
791.4	46.75
791.6	47.01
791.8	47.70
792.0	48.39
792.2	48.48
792.4	49.45
792.6	48.27
792.8	46.63
793.0	45.21
793.2	44.38
793.4	44.22
793.6	44.35
793.8	45.55
794.0	46.80
794.2	46.69
794.4	45.59
794.6	45.92
794.8	45.58
795.0	44.98
795.2	44.72
795.4	43.13
795.6	41.69
795.8	41.97
796.0	44.02
796.2	44.84
796.4	45.32
796.6	44.77
796.8	43.69
797.0	42.11
797.2	42.43
797.4	43.25
797.6	44.59
797.8	44.08
798.0	45.14
798.2	44.39
798.4	45.00
798.6	45.29
798.8	44.50
799.0	40.98
799.2	40.33
799.4	39.74
799.6	41.68
799.8	43.62
800.0	44.33

