Sample:	'20211010A(EM)
File name:	R-CDs 10 1000.FDS
Run date:	'16:17:27, 06/09/2023
Operator:	Administrator
Comment:	'

Instrument
Model:	F-4700 FL Spectrophotometer
Serial number:	2019-001
ROM Version:	5J24010 00

Instrument parameters
Measurement type:	Wavelength scan
Scan mode:	Emission
Data mode:	Fluorescence
EX WL:	520.0 nm
EM  Start WL:	540.0 nm
EM  End WL:	800.0 nm
Scan speed:	1200 nm/min
Delay:	0.0 s
EX Slit:	10.0 nm
EM Slit:	10.0 nm
PMT Voltage:	615 V
Response:	0.002 s
Corrected spectra:	Off
Shutter control:	On

Processing performed
Savitsky-Golay smoothed
Smoothing order:	3
Number of points:	7
Number of times:	1

Peak integration
Integration method:	Rectangular
Sensitivity:	1
Threshold:	1.000

Peaks
No.	Start(nm)	Apex(nm)	End(nm)	Height(Data)	Valley(nm)	Valley(Data)
1	540.0	541.8	542.4	221.3	542.4	212.1
2	542.4	606.6	608.0	1813	608.0	1798
3	608.0	608.6	609.8	1810	609.8	1793
4	609.8	612.0	612.4	1818	612.4	1801
5	612.4	613.2	614.4	1818	614.4	1796
6	614.4	614.8	750.4	1817	750.4	57.45
7	750.4	751.6	761.4	62.59	761.4	41.14
8	761.4	762.2	767.0	44.28	767.0	35.39
9	767.0	767.8	768.6	37.16	768.6	33.29
10	768.6	769.4	773.6	35.83	773.6	26.32
11	773.6	775.2	778.8	29.23	778.8	23.50
12	778.8	780.8	784.2	26.13	784.2	20.15
13	784.2	785.2	790.6	22.31	790.6	18.92
14	790.6	792.0	793.8	20.35	793.8	17.28
15	793.8	795.2	800.0	19.71	800.0	15.67

Data points
nm	Data
540.0	207.5
540.2	207.6
540.4	209.1
540.6	211.3
540.8	212.9
541.0	213.5
541.2	214.0
541.4	217.4
541.6	219.3
541.8	221.3
542.0	219.4
542.2	214.1
542.4	212.1
542.6	213.6
542.8	216.6
543.0	221.4
543.2	225.7
543.4	228.8
543.6	230.1
543.8	233.4
544.0	233.9
544.2	231.3
544.4	232.6
544.6	231.2
544.8	230.6
545.0	236.5
545.2	241.7
545.4	243.5
545.6	249.1
545.8	249.0
546.0	248.7
546.2	249.1
546.4	248.6
546.6	249.9
546.8	253.6
547.0	257.3
547.2	260.7
547.4	261.8
547.6	262.4
547.8	266.1
548.0	270.2
548.2	272.9
548.4	274.8
548.6	275.9
548.8	277.6
549.0	277.5
549.2	277.9
549.4	277.3
549.6	278.2
549.8	281.9
550.0	287.2
550.2	290.8
550.4	294.3
550.6	296.3
550.8	296.9
551.0	299.7
551.2	303.7
551.4	307.4
551.6	310.2
551.8	311.8
552.0	311.9
552.2	312.8
552.4	316.6
552.6	319.2
552.8	319.0
553.0	323.8
553.2	328.1
553.4	331.6
553.6	334.0
553.8	335.6
554.0	338.6
554.2	341.6
554.4	346.0
554.6	349.6
554.8	350.9
555.0	351.6
555.2	357.5
555.4	358.3
555.6	360.3
555.8	361.3
556.0	363.3
556.2	367.1
556.4	373.8
556.6	378.6
556.8	383.1
557.0	389.7
557.2	395.0
557.4	399.5
557.6	401.8
557.8	402.8
558.0	403.1
558.2	409.3
558.4	414.1
558.6	419.1
558.8	421.6
559.0	429.2
559.2	431.5
559.4	437.2
559.6	444.4
559.8	452.5
560.0	454.7
560.2	465.0
560.4	465.6
560.6	467.1
560.8	470.4
561.0	475.0
561.2	481.2
561.4	494.5
561.6	498.6
561.8	504.6
562.0	506.4
562.2	506.9
562.4	512.0
562.6	518.7
562.8	522.3
563.0	530.3
563.2	538.8
563.4	544.1
563.6	551.6
563.8	556.2
564.0	562.6
564.2	566.7
564.4	576.5
564.6	585.3
564.8	594.5
565.0	601.1
565.2	607.7
565.4	608.6
565.6	618.0
565.8	629.1
566.0	636.2
566.2	641.6
566.4	644.4
566.6	651.8
566.8	660.9
567.0	666.5
567.2	673.0
567.4	683.9
567.6	693.9
567.8	713.7
568.0	725.6
568.2	721.9
568.4	721.7
568.6	722.9
568.8	728.3
569.0	740.6
569.2	753.2
569.4	759.0
569.6	767.8
569.8	772.9
570.0	780.3
570.2	787.0
570.4	793.3
570.6	801.9
570.8	814.5
571.0	824.7
571.2	834.7
571.4	845.9
571.6	851.0
571.8	861.8
572.0	877.0
572.2	885.3
572.4	889.9
572.6	895.0
572.8	899.6
573.0	909.1
573.2	920.9
573.4	935.9
573.6	943.7
573.8	955.5
574.0	964.8
574.2	973.5
574.4	978.0
574.6	984.7
574.8	985.7
575.0	992.8
575.2	1002
575.4	1020
575.6	1035
575.8	1042
576.0	1050
576.2	1056
576.4	1064
576.6	1075
576.8	1089
577.0	1097
577.2	1102
577.4	1105
577.6	1115
577.8	1125
578.0	1139
578.2	1150
578.4	1155
578.6	1162
578.8	1177
579.0	1181
579.2	1188
579.4	1194
579.6	1201
579.8	1213
580.0	1227
580.2	1229
580.4	1234
580.6	1242
580.8	1251
581.0	1259
581.2	1272
581.4	1272
581.6	1275
581.8	1280
582.0	1287
582.2	1292
582.4	1304
582.6	1311
582.8	1321
583.0	1329
583.2	1340
583.4	1347
583.6	1357
583.8	1366
584.0	1375
584.2	1375
584.4	1380
584.6	1385
584.8	1397
585.0	1408
585.2	1420
585.4	1420
585.6	1417
585.8	1426
586.0	1433
586.2	1443
586.4	1457
586.6	1456
586.8	1452
587.0	1469
587.2	1471
587.4	1479
587.6	1483
587.8	1487
588.0	1486
588.2	1495
588.4	1499
588.6	1510
588.8	1512
589.0	1521
589.2	1525
589.4	1532
589.6	1539
589.8	1543
590.0	1546
590.2	1551
590.4	1555
590.6	1564
590.8	1569
591.0	1576
591.2	1584
591.4	1595
591.6	1592
591.8	1592
592.0	1592
592.2	1601
592.4	1603
592.6	1615
592.8	1614
593.0	1615
593.2	1622
593.4	1633
593.6	1638
593.8	1647
594.0	1649
594.2	1640
594.4	1643
594.6	1645
594.8	1653
595.0	1668
595.2	1669
595.4	1667
595.6	1672
595.8	1673
596.0	1683
596.2	1692
596.4	1687
596.6	1688
596.8	1696
597.0	1695
597.2	1697
597.4	1707
597.6	1712
597.8	1715
598.0	1722
598.2	1727
598.4	1721
598.6	1726
598.8	1735
599.0	1732
599.2	1728
599.4	1733
599.6	1735
599.8	1743
600.0	1757
600.2	1752
600.4	1747
600.6	1748
600.8	1752
601.0	1754
601.2	1756
601.4	1760
601.6	1769
601.8	1775
602.0	1773
602.2	1771
602.4	1774
602.6	1775
602.8	1785
603.0	1785
603.2	1777
603.4	1773
603.6	1775
603.8	1769
604.0	1778
604.2	1786
604.4	1784
604.6	1786
604.8	1787
605.0	1792
605.2	1798
605.4	1805
605.6	1799
605.8	1797
606.0	1799
606.2	1805
606.4	1809
606.6	1813
606.8	1807
607.0	1800
607.2	1804
607.4	1803
607.6	1803
607.8	1801
608.0	1798
608.2	1800
608.4	1809
608.6	1810
608.8	1807
609.0	1804
609.2	1800
609.4	1802
609.6	1796
609.8	1793
610.0	1794
610.2	1807
610.4	1812
610.6	1809
610.8	1802
611.0	1797
611.2	1800
611.4	1810
611.6	1813
611.8	1812
612.0	1818
612.2	1804
612.4	1801
612.6	1803
612.8	1807
613.0	1810
613.2	1818
613.4	1808
613.6	1811
613.8	1810
614.0	1806
614.2	1800
614.4	1796
614.6	1803
614.8	1817
615.0	1815
615.2	1817
615.4	1812
615.6	1797
615.8	1794
616.0	1798
616.2	1791
616.4	1787
616.6	1785
616.8	1782
617.0	1787
617.2	1795
617.4	1795
617.6	1782
617.8	1785
618.0	1788
618.2	1785
618.4	1787
618.6	1782
618.8	1780
619.0	1782
619.2	1782
619.4	1772
619.6	1775
619.8	1770
620.0	1773
620.2	1764
620.4	1758
620.6	1751
620.8	1755
621.0	1754
621.2	1755
621.4	1752
621.6	1748
621.8	1743
622.0	1737
622.2	1729
622.4	1727
622.6	1726
622.8	1733
623.0	1733
623.2	1728
623.4	1724
623.6	1726
623.8	1730
624.0	1726
624.2	1723
624.4	1712
624.6	1701
624.8	1700
625.0	1705
625.2	1701
625.4	1702
625.6	1702
625.8	1693
626.0	1695
626.2	1692
626.4	1685
626.6	1675
626.8	1673
627.0	1671
627.2	1680
627.4	1682
627.6	1686
627.8	1675
628.0	1667
628.2	1661
628.4	1656
628.6	1648
628.8	1644
629.0	1637
629.2	1638
629.4	1637
629.6	1635
629.8	1627
630.0	1620
630.2	1611
630.4	1605
630.6	1604
630.8	1605
631.0	1607
631.2	1604
631.4	1600
631.6	1598
631.8	1590
632.0	1589
632.2	1592
632.4	1590
632.6	1585
632.8	1581
633.0	1570
633.2	1566
633.4	1565
633.6	1565
633.8	1557
634.0	1552
634.2	1547
634.4	1543
634.6	1537
634.8	1535
635.0	1528
635.2	1526
635.4	1521
635.6	1512
635.8	1505
636.0	1504
636.2	1494
636.4	1488
636.6	1479
636.8	1479
637.0	1484
637.2	1488
637.4	1483
637.6	1470
637.8	1461
638.0	1461
638.2	1462
638.4	1454
638.6	1446
638.8	1441
639.0	1441
639.2	1439
639.4	1439
639.6	1430
639.8	1425
640.0	1424
640.2	1420
640.4	1413
640.6	1408
640.8	1395
641.0	1383
641.2	1380
641.4	1373
641.6	1368
641.8	1367
642.0	1368
642.2	1367
642.4	1372
642.6	1365
642.8	1362
643.0	1352
643.2	1346
643.4	1335
643.6	1324
643.8	1319
644.0	1321
644.2	1314
644.4	1303
644.6	1299
644.8	1300
645.0	1302
645.2	1303
645.4	1295
645.6	1286
645.8	1281
646.0	1280
646.2	1275
646.4	1271
646.6	1266
646.8	1261
647.0	1250
647.2	1244
647.4	1240
647.6	1236
647.8	1239
648.0	1232
648.2	1230
648.4	1227
648.6	1218
648.8	1211
649.0	1209
649.2	1199
649.4	1197
649.6	1195
649.8	1186
650.0	1181
650.2	1173
650.4	1166
650.6	1158
650.8	1151
651.0	1149
651.2	1145
651.4	1135
651.6	1131
651.8	1129
652.0	1131
652.2	1128
652.4	1122
652.6	1113
652.8	1101
653.0	1092
653.2	1090
653.4	1087
653.6	1084
653.8	1080
654.0	1075
654.2	1066
654.4	1060
654.6	1061
654.8	1056
655.0	1053
655.2	1052
655.4	1043
655.6	1038
655.8	1034
656.0	1027
656.2	1023
656.4	1023
656.6	1014
656.8	1018
657.0	1013
657.2	1006
657.4	994.5
657.6	988.0
657.8	979.1
658.0	982.7
658.2	976.3
658.4	978.9
658.6	975.8
658.8	974.6
659.0	966.1
659.2	954.7
659.4	942.6
659.6	944.4
659.8	946.5
660.0	948.9
660.2	943.3
660.4	938.1
660.6	931.8
660.8	927.3
661.0	916.6
661.2	904.5
661.4	896.6
661.6	898.2
661.8	902.1
662.0	903.0
662.2	899.8
662.4	891.1
662.6	881.0
662.8	876.0
663.0	874.6
663.2	870.6
663.4	868.3
663.6	864.1
663.8	855.7
664.0	851.1
664.2	843.5
664.4	837.7
664.6	833.2
664.8	831.5
665.0	829.3
665.2	827.7
665.4	819.4
665.6	815.6
665.8	810.2
666.0	806.7
666.2	804.4
666.4	802.1
666.6	799.3
666.8	799.8
667.0	797.6
667.2	792.2
667.4	788.3
667.6	783.3
667.8	776.9
668.0	768.8
668.2	764.8
668.4	757.6
668.6	759.4
668.8	750.5
669.0	747.7
669.2	742.7
669.4	745.9
669.6	744.5
669.8	742.8
670.0	726.6
670.2	714.5
670.4	706.0
670.6	706.4
670.8	705.9
671.0	708.1
671.2	709.3
671.4	704.7
671.6	700.2
671.8	696.8
672.0	693.6
672.2	691.4
672.4	687.0
672.6	684.2
672.8	673.1
673.0	668.9
673.2	666.0
673.4	663.5
673.6	659.5
673.8	658.4
674.0	653.3
674.2	654.7
674.4	650.9
674.6	648.3
674.8	643.6
675.0	637.0
675.2	631.5
675.4	628.9
675.6	620.4
675.8	615.2
676.0	608.6
676.2	606.9
676.4	609.3
676.6	607.7
676.8	608.5
677.0	607.0
677.2	601.0
677.4	596.9
677.6	595.6
677.8	587.6
678.0	586.2
678.2	583.3
678.4	578.5
678.6	574.4
678.8	571.4
679.0	569.7
679.2	567.6
679.4	562.4
679.6	555.6
679.8	550.0
680.0	543.6
680.2	542.7
680.4	542.8
680.6	546.6
680.8	545.3
681.0	543.9
681.2	538.7
681.4	533.2
681.6	526.8
681.8	528.3
682.0	524.7
682.2	526.1
682.4	527.0
682.6	521.1
682.8	512.7
683.0	504.5
683.2	498.3
683.4	495.4
683.6	496.6
683.8	495.2
684.0	494.7
684.2	490.4
684.4	490.9
684.6	487.2
684.8	483.4
685.0	483.9
685.2	477.1
685.4	473.6
685.6	474.6
685.8	473.0
686.0	472.7
686.2	471.5
686.4	462.4
686.6	457.9
686.8	452.4
687.0	451.3
687.2	448.8
687.4	448.1
687.6	448.0
687.8	446.9
688.0	442.8
688.2	438.6
688.4	431.3
688.6	429.2
688.8	429.6
689.0	429.4
689.2	427.0
689.4	423.3
689.6	416.5
689.8	413.4
690.0	412.4
690.2	409.2
690.4	410.9
690.6	411.2
690.8	408.6
691.0	413.0
691.2	411.9
691.4	408.8
691.6	403.8
691.8	397.0
692.0	392.0
692.2	391.2
692.4	389.7
692.6	389.5
692.8	386.7
693.0	386.3
693.2	382.4
693.4	378.3
693.6	375.2
693.8	374.0
694.0	372.9
694.2	373.6
694.4	368.9
694.6	366.9
694.8	367.0
695.0	368.9
695.2	367.3
695.4	366.0
695.6	361.3
695.8	358.9
696.0	356.8
696.2	352.8
696.4	348.2
696.6	345.4
696.8	344.9
697.0	347.1
697.2	350.5
697.4	347.9
697.6	346.0
697.8	343.0
698.0	338.9
698.2	335.2
698.4	332.5
698.6	329.2
698.8	326.8
699.0	328.3
699.2	326.7
699.4	326.9
699.6	328.9
699.8	328.1
700.0	322.2
700.2	318.3
700.4	312.1
700.6	311.5
700.8	311.5
701.0	312.4
701.2	312.2
701.4	310.0
701.6	308.2
701.8	308.0
702.0	303.9
702.2	301.5
702.4	298.9
702.6	296.2
702.8	292.5
703.0	292.7
703.2	293.8
703.4	293.6
703.6	296.0
703.8	294.9
704.0	290.4
704.2	287.4
704.4	287.0
704.6	283.5
704.8	284.3
705.0	283.3
705.2	282.7
705.4	281.0
705.6	279.3
705.8	274.4
706.0	272.3
706.2	269.8
706.4	270.8
706.6	273.1
706.8	272.6
707.0	273.4
707.2	271.4
707.4	266.1
707.6	263.0
707.8	259.1
708.0	256.2
708.2	257.7
708.4	259.0
708.6	258.4
708.8	257.4
709.0	252.1
709.2	250.0
709.4	249.2
709.6	247.8
709.8	243.9
710.0	242.0
710.2	239.3
710.4	239.1
710.6	238.7
710.8	238.9
711.0	237.3
711.2	237.0
711.4	239.0
711.6	239.3
711.8	237.6
712.0	235.9
712.2	234.1
712.4	229.4
712.6	227.4
712.8	223.7
713.0	219.7
713.2	217.6
713.4	218.5
713.6	216.8
713.8	217.3
714.0	216.3
714.2	213.5
714.4	212.9
714.6	211.8
714.8	210.1
715.0	212.8
715.2	214.8
715.4	213.9
715.6	213.8
715.8	206.0
716.0	202.1
716.2	201.1
716.4	199.4
716.6	197.4
716.8	196.1
717.0	191.4
717.2	193.3
717.4	194.4
717.6	194.3
717.8	191.3
718.0	188.6
718.2	187.8
718.4	189.4
718.6	189.7
718.8	187.1
719.0	182.0
719.2	178.1
719.4	177.2
719.6	176.4
719.8	177.7
720.0	177.6
720.2	177.0
720.4	176.4
720.6	176.7
720.8	172.5
721.0	172.5
721.2	170.5
721.4	168.4
721.6	167.7
721.8	166.8
722.0	166.4
722.2	167.9
722.4	166.2
722.6	162.6
722.8	161.2
723.0	160.4
723.2	159.1
723.4	158.4
723.6	158.3
723.8	158.1
724.0	159.3
724.2	160.4
724.4	156.5
724.6	153.2
724.8	153.4
725.0	152.8
725.2	152.6
725.4	153.0
725.6	150.5
725.8	148.6
726.0	147.4
726.2	145.4
726.4	144.2
726.6	142.8
726.8	141.4
727.0	141.6
727.2	141.0
727.4	142.0
727.6	140.7
727.8	140.0
728.0	138.1
728.2	138.1
728.4	136.1
728.6	136.5
728.8	134.9
729.0	135.4
729.2	133.5
729.4	132.6
729.6	130.8
729.8	130.0
730.0	128.7
730.2	128.1
730.4	126.6
730.6	125.9
730.8	123.5
731.0	121.4
731.2	120.7
731.4	120.7
731.6	119.8
731.8	118.9
732.0	115.8
732.2	117.3
732.4	116.5
732.6	115.6
732.8	114.7
733.0	113.4
733.2	113.7
733.4	115.9
733.6	114.0
733.8	112.2
734.0	111.7
734.2	110.1
734.4	108.3
734.6	106.1
734.8	104.9
735.0	105.0
735.2	106.5
735.4	108.1
735.6	108.1
735.8	107.8
736.0	106.5
736.2	104.9
736.4	103.7
736.6	103.0
736.8	102.0
737.0	101.1
737.2	100.0
737.4	99.27
737.6	98.90
737.8	99.12
738.0	98.40
738.2	98.28
738.4	96.27
738.6	94.83
738.8	93.88
739.0	94.29
739.2	94.43
739.4	96.25
739.6	95.19
739.8	95.69
740.0	94.54
740.2	91.65
740.4	88.45
740.6	87.05
740.8	87.12
741.0	87.36
741.2	87.60
741.4	87.04
741.6	85.98
741.8	85.62
742.0	85.78
742.2	84.29
742.4	83.56
742.6	82.71
742.8	82.74
743.0	82.50
743.2	82.06
743.4	82.47
743.6	81.17
743.8	81.01
744.0	80.74
744.2	79.65
744.4	76.81
744.6	75.71
744.8	74.54
745.0	74.73
745.2	74.61
745.4	75.40
745.6	74.90
745.8	75.11
746.0	75.73
746.2	75.03
746.4	73.77
746.6	73.38
746.8	73.41
747.0	71.87
747.2	71.21
747.4	71.07
747.6	70.28
747.8	70.35
748.0	71.54
748.2	70.30
748.4	68.82
748.6	67.09
748.8	66.36
749.0	64.80
749.2	65.13
749.4	65.19
749.6	65.36
749.8	64.02
750.0	62.41
750.2	58.82
750.4	57.45
750.6	58.58
750.8	60.63
751.0	61.20
751.2	61.55
751.4	61.73
751.6	62.59
751.8	62.02
752.0	61.52
752.2	60.84
752.4	60.14
752.6	59.50
752.8	58.85
753.0	58.01
753.2	57.94
753.4	57.43
753.6	56.63
753.8	55.45
754.0	54.74
754.2	55.48
754.4	55.67
754.6	55.83
754.8	56.19
755.0	55.67
755.2	55.52
755.4	54.87
755.6	53.13
755.8	52.46
756.0	52.59
756.2	51.56
756.4	51.14
756.6	51.12
756.8	51.87
757.0	51.75
757.2	52.86
757.4	52.04
757.6	50.66
757.8	50.26
758.0	51.95
758.2	51.04
758.4	50.93
758.6	49.55
758.8	46.55
759.0	45.38
759.2	45.15
759.4	44.93
759.6	45.58
759.8	46.04
760.0	44.16
760.2	44.18
760.4	44.72
760.6	45.00
760.8	45.03
761.0	44.01
761.2	42.27
761.4	41.14
761.6	41.41
761.8	43.26
762.0	44.24
762.2	44.28
762.4	43.78
762.6	43.32
762.8	42.70
763.0	43.41
763.2	43.81
763.4	43.05
763.6	41.31
763.8	41.11
764.0	38.89
764.2	39.01
764.4	39.56
764.6	39.17
764.8	39.71
765.0	40.74
765.2	39.55
765.4	39.56
765.6	38.33
765.8	36.53
766.0	36.68
766.2	37.21
766.4	36.70
766.6	36.47
766.8	35.96
767.0	35.39
767.2	36.76
767.4	37.14
767.6	37.04
767.8	37.16
768.0	36.11
768.2	34.86
768.4	33.68
768.6	33.29
768.8	33.47
769.0	34.41
769.2	35.50
769.4	35.83
769.6	34.53
769.8	34.28
770.0	33.15
770.2	32.80
770.4	33.60
770.6	33.06
770.8	32.96
771.0	32.55
771.2	32.21
771.4	31.92
771.6	32.16
771.8	31.88
772.0	32.02
772.2	31.21
772.4	31.02
772.6	30.66
772.8	30.54
773.0	30.32
773.2	29.26
773.4	27.72
773.6	26.32
773.8	26.60
774.0	26.87
774.2	27.44
774.4	27.59
774.6	27.40
774.8	27.51
775.0	28.65
775.2	29.23
775.4	28.96
775.6	27.88
775.8	27.50
776.0	27.19
776.2	26.57
776.4	27.20
776.6	26.86
776.8	26.86
777.0	27.34
777.2	26.56
777.4	25.47
777.6	25.75
777.8	25.50
778.0	25.98
778.2	26.41
778.4	25.49
778.6	24.62
778.8	23.50
779.0	23.72
779.2	24.40
779.4	24.99
779.6	25.22
779.8	24.39
780.0	23.83
780.2	24.47
780.4	24.76
780.6	24.95
780.8	26.13
781.0	24.99
781.2	25.13
781.4	24.14
781.6	23.27
781.8	22.74
782.0	23.70
782.2	22.96
782.4	24.03
782.6	23.57
782.8	23.39
783.0	22.79
783.2	23.06
783.4	22.49
783.6	22.60
783.8	21.52
784.0	20.84
784.2	20.15
784.4	20.35
784.6	20.67
784.8	21.41
785.0	21.93
785.2	22.31
785.4	21.91
785.6	21.98
785.8	22.30
786.0	22.15
786.2	21.20
786.4	21.14
786.6	20.10
786.8	20.13
787.0	20.67
787.2	20.90
787.4	20.69
787.6	21.01
787.8	21.08
788.0	20.89
788.2	20.43
788.4	20.36
788.6	20.70
788.8	20.34
789.0	21.14
789.2	20.75
789.4	20.08
789.6	19.83
789.8	19.66
790.0	19.39
790.2	19.78
790.4	19.30
790.6	18.92
790.8	19.40
791.0	18.96
791.2	19.23
791.4	19.17
791.6	19.23
791.8	19.36
792.0	20.35
792.2	19.21
792.4	18.89
792.6	18.32
792.8	17.86
793.0	18.14
793.2	18.45
793.4	17.61
793.6	17.37
793.8	17.28
794.0	17.45
794.2	17.68
794.4	17.94
794.6	18.29
794.8	18.83
795.0	19.28
795.2	19.71
795.4	19.44
795.6	18.22
795.8	17.91
796.0	17.58
796.2	17.20
796.4	16.74
796.6	17.53
796.8	16.57
797.0	16.87
797.2	16.61
797.4	17.09
797.6	16.77
797.8	17.05
798.0	16.97
798.2	17.63
798.4	17.49
798.6	17.67
798.8	17.44
799.0	17.15
799.2	17.24
799.4	17.91
799.6	17.56
799.8	16.79
800.0	15.67

