Sample:	'20211010A(EM)
File name:	G-CDs 10 1000.FDS
Run date:	'16:58:00, 06/10/2023
Operator:	Administrator
Comment:	'

Instrument
Model:	F-4700 FL Spectrophotometer
Serial number:	2019-001
ROM Version:	5J24010 00

Instrument parameters
Measurement type:	Wavelength scan
Scan mode:	Emission
Data mode:	Fluorescence
EX WL:	400.0 nm
EM  Start WL:	420.0 nm
EM  End WL:	800.0 nm
Scan speed:	1200 nm/min
Delay:	0.0 s
EX Slit:	10.0 nm
EM Slit:	10.0 nm
PMT Voltage:	450 V
Response:	0.002 s
Corrected spectra:	Off
Shutter control:	On

Processing performed
Savitsky-Golay smoothed
Smoothing order:	3
Number of points:	7
Number of times:	1

Peak integration
Integration method:	Rectangular
Sensitivity:	1
Threshold:	1.000

Peaks
No.	Start(nm)	Apex(nm)	End(nm)	Height(Data)	Valley(nm)	Valley(Data)
1	420.0	549.0	788.6	9768	788.6	7.949

Data points
nm	Data
420.0	20.07
420.2	20.20
420.4	20.19
420.6	20.10
420.8	20.05
421.0	19.95
421.2	20.03
421.4	20.13
421.6	20.18
421.8	20.29
422.0	20.24
422.2	20.13
422.4	20.12
422.6	20.12
422.8	20.04
423.0	20.16
423.2	20.29
423.4	20.40
423.6	20.49
423.8	20.67
424.0	20.70
424.2	20.81
424.4	20.89
424.6	20.64
424.8	20.74
425.0	20.80
425.2	20.83
425.4	20.60
425.6	20.51
425.8	20.50
426.0	20.70
426.2	20.61
426.4	20.85
426.6	20.77
426.8	20.84
427.0	21.22
427.2	21.42
427.4	21.59
427.6	21.65
427.8	21.36
428.0	20.86
428.2	20.81
428.4	21.17
428.6	21.66
428.8	21.95
429.0	21.85
429.2	21.49
429.4	21.64
429.6	22.12
429.8	22.46
430.0	22.26
430.2	21.94
430.4	21.53
430.6	21.71
430.8	21.97
431.0	22.69
431.2	22.98
431.4	23.14
431.6	23.36
431.8	23.27
432.0	23.21
432.2	23.30
432.4	23.38
432.6	23.41
432.8	23.73
433.0	23.82
433.2	24.36
433.4	24.56
433.6	24.73
433.8	24.86
434.0	24.58
434.2	24.51
434.4	24.65
434.6	25.08
434.8	25.47
435.0	26.00
435.2	25.95
435.4	26.19
435.6	26.27
435.8	26.51
436.0	26.86
436.2	27.28
436.4	27.35
436.6	27.46
436.8	27.71
437.0	27.74
437.2	28.07
437.4	28.59
437.6	29.13
437.8	29.49
438.0	29.86
438.2	29.96
438.4	30.46
438.6	30.98
438.8	31.62
439.0	32.13
439.2	32.35
439.4	32.59
439.6	33.03
439.8	33.45
440.0	34.30
440.2	35.13
440.4	35.75
440.6	35.91
440.8	35.96
441.0	36.03
441.2	36.93
441.4	38.08
441.6	38.93
441.8	39.73
442.0	40.63
442.2	41.04
442.4	41.81
442.6	42.42
442.8	42.72
443.0	43.25
443.2	43.92
443.4	44.20
443.6	44.43
443.8	45.17
444.0	45.83
444.2	46.86
444.4	47.98
444.6	48.75
444.8	49.28
445.0	50.06
445.2	50.90
445.4	51.92
445.6	52.87
445.8	53.54
446.0	54.00
446.2	54.90
446.4	56.06
446.6	56.75
446.8	57.56
447.0	58.35
447.2	58.97
447.4	60.02
447.6	60.62
447.8	60.78
448.0	61.47
448.2	62.29
448.4	62.85
448.6	63.77
448.8	64.32
449.0	64.73
449.2	65.61
449.4	66.34
449.6	66.54
449.8	67.27
450.0	68.24
450.2	69.12
450.4	70.02
450.6	70.89
450.8	71.01
451.0	71.82
451.2	72.75
451.4	73.07
451.6	74.34
451.8	75.41
452.0	75.95
452.2	75.90
452.4	75.87
452.6	75.43
452.8	76.53
453.0	77.54
453.2	78.22
453.4	77.84
453.6	78.55
453.8	79.03
454.0	79.54
454.2	79.68
454.4	80.06
454.6	80.38
454.8	80.82
455.0	80.92
455.2	81.40
455.4	81.71
455.6	82.61
455.8	83.66
456.0	83.49
456.2	82.77
456.4	82.75
456.6	82.65
456.8	82.58
457.0	83.30
457.2	83.73
457.4	83.83
457.6	83.73
457.8	84.07
458.0	84.34
458.2	84.71
458.4	85.47
458.6	85.64
458.8	85.13
459.0	85.43
459.2	85.42
459.4	86.08
459.6	86.84
459.8	86.98
460.0	87.19
460.2	87.25
460.4	86.89
460.6	87.07
460.8	88.02
461.0	88.11
461.2	88.50
461.4	88.75
461.6	89.03
461.8	89.24
462.0	90.40
462.2	90.09
462.4	89.84
462.6	89.94
462.8	89.95
463.0	90.96
463.2	91.85
463.4	92.25
463.6	92.80
463.8	92.31
464.0	92.61
464.2	93.86
464.4	94.66
464.6	95.27
464.8	96.37
465.0	96.49
465.2	97.64
465.4	98.84
465.6	99.88
465.8	100.7
466.0	101.8
466.2	102.6
466.4	103.3
466.6	104.1
466.8	105.4
467.0	106.6
467.2	107.7
467.4	108.3
467.6	108.8
467.8	109.5
468.0	111.0
468.2	112.3
468.4	114.5
468.6	116.7
468.8	118.9
469.0	120.9
469.2	122.4
469.4	122.9
469.6	124.1
469.8	126.1
470.0	127.9
470.2	130.0
470.4	132.5
470.6	135.0
470.8	138.3
471.0	142.0
471.2	145.0
471.4	147.0
471.6	149.3
471.8	150.9
472.0	153.6
472.2	156.7
472.4	159.7
472.6	162.5
472.8	166.1
473.0	168.6
473.2	171.9
473.4	175.1
473.6	178.3
473.8	181.3
474.0	185.0
474.2	188.6
474.4	192.9
474.6	197.6
474.8	202.3
475.0	206.7
475.2	211.0
475.4	215.0
475.6	218.3
475.8	221.8
476.0	224.7
476.2	229.2
476.4	234.4
476.6	240.1
476.8	245.4
477.0	249.6
477.2	253.9
477.4	258.6
477.6	264.3
477.8	270.6
478.0	275.6
478.2	279.6
478.4	284.0
478.6	288.3
478.8	293.2
479.0	300.3
479.2	306.9
479.4	313.1
479.6	320.0
479.8	326.7
480.0	331.2
480.2	337.4
480.4	344.5
480.6	351.3
480.8	359.3
481.0	367.8
481.2	372.3
481.4	377.1
481.6	383.1
481.8	390.3
482.0	397.0
482.2	406.1
482.4	413.2
482.6	420.2
482.8	427.7
483.0	435.9
483.2	441.8
483.4	449.7
483.6	458.0
483.8	466.8
484.0	475.7
484.2	485.9
484.4	494.3
484.6	503.3
484.8	511.8
485.0	521.6
485.2	530.3
485.4	539.6
485.6	545.9
485.8	555.2
486.0	563.7
486.2	575.7
486.4	586.4
486.6	597.1
486.8	605.5
487.0	615.2
487.2	625.6
487.4	637.0
487.6	648.2
487.8	659.6
488.0	669.5
488.2	679.5
488.4	690.9
488.6	701.8
488.8	713.6
489.0	726.7
489.2	737.6
489.4	751.2
489.6	763.7
489.8	777.0
490.0	790.2
490.2	803.1
490.4	815.7
490.6	829.7
490.8	843.7
491.0	858.0
491.2	872.5
491.4	887.3
491.6	902.3
491.8	916.4
492.0	930.6
492.2	945.4
492.4	959.9
492.6	977.0
492.8	992.1
493.0	1010
493.2	1026
493.4	1042
493.6	1060
493.8	1078
494.0	1094
494.2	1113
494.4	1128
494.6	1146
494.8	1168
495.0	1190
495.2	1212
495.4	1231
495.6	1248
495.8	1269
496.0	1288
496.2	1313
496.4	1336
496.6	1357
496.8	1376
497.0	1397
497.2	1418
497.4	1445
497.6	1467
497.8	1494
498.0	1517
498.2	1541
498.4	1568
498.6	1599
498.8	1627
499.0	1654
499.2	1680
499.4	1706
499.6	1731
499.8	1759
500.0	1787
500.2	1813
500.4	1842
500.6	1872
500.8	1903
501.0	1935
501.2	1967
501.4	1998
501.6	2028
501.8	2058
502.0	2090
502.2	2118
502.4	2149
502.6	2182
502.8	2218
503.0	2257
503.2	2294
503.4	2326
503.6	2356
503.8	2392
504.0	2427
504.2	2461
504.4	2496
504.6	2536
504.8	2572
505.0	2613
505.2	2650
505.4	2685
505.6	2722
505.8	2765
506.0	2804
506.2	2843
506.4	2881
506.6	2920
506.8	2956
507.0	2999
507.2	3039
507.4	3079
507.6	3120
507.8	3163
508.0	3207
508.2	3250
508.4	3287
508.6	3329
508.8	3374
509.0	3421
509.2	3470
509.4	3518
509.6	3560
509.8	3604
510.0	3647
510.2	3694
510.4	3736
510.6	3778
510.8	3822
511.0	3869
511.2	3914
511.4	3965
511.6	4009
511.8	4053
512.0	4100
512.2	4148
512.4	4190
512.6	4235
512.8	4279
513.0	4328
513.2	4375
513.4	4428
513.6	4473
513.8	4517
514.0	4563
514.2	4607
514.4	4650
514.6	4702
514.8	4751
515.0	4799
515.2	4850
515.4	4900
515.6	4953
515.8	5005
516.0	5055
516.2	5107
516.4	5151
516.6	5190
516.8	5236
517.0	5284
517.2	5337
517.4	5392
517.6	5438
517.8	5476
518.0	5517
518.2	5565
518.4	5617
518.6	5666
518.8	5714
519.0	5764
519.2	5806
519.4	5851
519.6	5898
519.8	5940
520.0	5987
520.2	6044
520.4	6089
520.6	6140
520.8	6183
521.0	6225
521.2	6275
521.4	6329
521.6	6383
521.8	6432
522.0	6467
522.2	6508
522.4	6552
522.6	6599
522.8	6650
523.0	6696
523.2	6738
523.4	6782
523.6	6830
523.8	6877
524.0	6921
524.2	6965
524.4	7001
524.6	7039
524.8	7083
525.0	7126
525.2	7174
525.4	7218
525.6	7260
525.8	7306
526.0	7348
526.2	7385
526.4	7437
526.6	7481
526.8	7522
527.0	7571
527.2	7606
527.4	7641
527.6	7681
527.8	7715
528.0	7746
528.2	7779
528.4	7811
528.6	7852
528.8	7887
529.0	7929
529.2	7969
529.4	8004
529.6	8047
529.8	8091
530.0	8130
530.2	8173
530.4	8207
530.6	8232
530.8	8256
531.0	8287
531.2	8314
531.4	8355
531.6	8396
531.8	8438
532.0	8470
532.2	8496
532.4	8522
532.6	8560
532.8	8590
533.0	8625
533.2	8651
533.4	8679
533.6	8710
533.8	8738
534.0	8762
534.2	8790
534.4	8813
534.6	8842
534.8	8871
535.0	8907
535.2	8936
535.4	8965
535.6	8991
535.8	9006
536.0	9023
536.2	9053
536.4	9073
536.6	9101
536.8	9123
537.0	9140
537.2	9158
537.4	9176
537.6	9193
537.8	9221
538.0	9241
538.2	9269
538.4	9298
538.6	9320
538.8	9339
539.0	9356
539.2	9377
539.4	9395
539.6	9412
539.8	9432
540.0	9450
540.2	9465
540.4	9482
540.6	9491
540.8	9492
541.0	9494
541.2	9508
541.4	9528
541.6	9550
541.8	9570
542.0	9577
542.2	9582
542.4	9593
542.6	9613
542.8	9623
543.0	9632
543.2	9639
543.4	9637
543.6	9648
543.8	9660
544.0	9658
544.2	9668
544.4	9689
544.6	9699
544.8	9717
545.0	9723
545.2	9731
545.4	9736
545.6	9744
545.8	9747
546.0	9751
546.2	9747
546.4	9746
546.6	9743
546.8	9742
547.0	9745
547.2	9761
547.4	9754
547.6	9748
547.8	9752
548.0	9751
548.2	9752
548.4	9763
548.6	9765
548.8	9765
549.0	9768
549.2	9757
549.4	9753
549.6	9752
549.8	9758
550.0	9755
550.2	9753
550.4	9741
550.6	9737
550.8	9735
551.0	9733
551.2	9736
551.4	9735
551.6	9723
551.8	9722
552.0	9724
552.2	9721
552.4	9714
552.6	9699
552.8	9685
553.0	9678
553.2	9679
553.4	9677
553.6	9666
553.8	9650
554.0	9630
554.2	9599
554.4	9581
554.6	9572
554.8	9567
555.0	9561
555.2	9558
555.4	9540
555.6	9530
555.8	9525
556.0	9510
556.2	9501
556.4	9491
556.6	9473
556.8	9458
557.0	9450
557.2	9436
557.4	9434
557.6	9422
557.8	9410
558.0	9395
558.2	9377
558.4	9361
558.6	9346
558.8	9337
559.0	9323
559.2	9316
559.4	9306
559.6	9291
559.8	9271
560.0	9253
560.2	9233
560.4	9217
560.6	9198
560.8	9183
561.0	9161
561.2	9135
561.4	9122
561.6	9104
561.8	9080
562.0	9056
562.2	9029
562.4	9010
562.6	9002
562.8	8997
563.0	8981
563.2	8954
563.4	8927
563.6	8912
563.8	8889
564.0	8869
564.2	8847
564.4	8830
564.6	8809
564.8	8797
565.0	8775
565.2	8750
565.4	8722
565.6	8698
565.8	8674
566.0	8653
566.2	8638
566.4	8623
566.6	8601
566.8	8578
567.0	8546
567.2	8518
567.4	8496
567.6	8472
567.8	8451
568.0	8431
568.2	8407
568.4	8384
568.6	8365
568.8	8345
569.0	8321
569.2	8297
569.4	8274
569.6	8241
569.8	8215
570.0	8194
570.2	8167
570.4	8149
570.6	8123
570.8	8093
571.0	8071
571.2	8054
571.4	8035
571.6	8019
571.8	7990
572.0	7961
572.2	7940
572.4	7922
572.6	7898
572.8	7870
573.0	7840
573.2	7810
573.4	7783
573.6	7755
573.8	7728
574.0	7710
574.2	7694
574.4	7673
574.6	7644
574.8	7608
575.0	7578
575.2	7556
575.4	7536
575.6	7512
575.8	7491
576.0	7461
576.2	7429
576.4	7401
576.6	7376
576.8	7356
577.0	7341
577.2	7313
577.4	7284
577.6	7259
577.8	7235
578.0	7214
578.2	7192
578.4	7170
578.6	7144
578.8	7115
579.0	7084
579.2	7053
579.4	7024
579.6	6997
579.8	6963
580.0	6933
580.2	6907
580.4	6883
580.6	6860
580.8	6831
581.0	6813
581.2	6795
581.4	6772
581.6	6745
581.8	6716
582.0	6686
582.2	6669
582.4	6651
582.6	6624
582.8	6597
583.0	6568
583.2	6540
583.4	6514
583.6	6498
583.8	6471
584.0	6452
584.2	6423
584.4	6396
584.6	6369
584.8	6343
585.0	6314
585.2	6290
585.4	6259
585.6	6244
585.8	6223
586.0	6200
586.2	6176
586.4	6150
586.6	6118
586.8	6097
587.0	6067
587.2	6042
587.4	6020
587.6	5993
587.8	5962
588.0	5943
588.2	5915
588.4	5894
588.6	5875
588.8	5849
589.0	5824
589.2	5806
589.4	5780
589.6	5762
589.8	5733
590.0	5714
590.2	5691
590.4	5663
590.6	5635
590.8	5610
591.0	5576
591.2	5552
591.4	5531
591.6	5513
591.8	5494
592.0	5475
592.2	5445
592.4	5414
592.6	5390
592.8	5367
593.0	5352
593.2	5331
593.4	5305
593.6	5280
593.8	5255
594.0	5223
594.2	5200
594.4	5178
594.6	5161
594.8	5143
595.0	5120
595.2	5095
595.4	5065
595.6	5040
595.8	5013
596.0	4991
596.2	4970
596.4	4956
596.6	4938
596.8	4918
597.0	4890
597.2	4865
597.4	4841
597.6	4821
597.8	4805
598.0	4782
598.2	4756
598.4	4738
598.6	4719
598.8	4697
599.0	4672
599.2	4643
599.4	4615
599.6	4594
599.8	4574
600.0	4557
600.2	4539
600.4	4517
600.6	4496
600.8	4471
601.0	4447
601.2	4430
601.4	4417
601.6	4403
601.8	4385
602.0	4360
602.2	4333
602.4	4305
602.6	4283
602.8	4270
603.0	4252
603.2	4230
603.4	4206
603.6	4182
603.8	4164
604.0	4148
604.2	4129
604.4	4110
604.6	4088
604.8	4063
605.0	4037
605.2	4014
605.4	3994
605.6	3979
605.8	3965
606.0	3946
606.2	3921
606.4	3903
606.6	3880
606.8	3856
607.0	3836
607.2	3819
607.4	3798
607.6	3785
607.8	3767
608.0	3749
608.2	3731
608.4	3718
608.6	3698
608.8	3677
609.0	3651
609.2	3629
609.4	3609
609.6	3592
609.8	3570
610.0	3551
610.2	3530
610.4	3509
610.6	3495
610.8	3476
611.0	3455
611.2	3437
611.4	3414
611.6	3398
611.8	3389
612.0	3374
612.2	3355
612.4	3329
612.6	3302
612.8	3284
613.0	3268
613.2	3254
613.4	3241
613.6	3222
613.8	3208
614.0	3192
614.2	3173
614.4	3157
614.6	3140
614.8	3122
615.0	3100
615.2	3076
615.4	3057
615.6	3045
615.8	3031
616.0	3016
616.2	2994
616.4	2978
616.6	2963
616.8	2950
617.0	2931
617.2	2912
617.4	2894
617.6	2877
617.8	2862
618.0	2846
618.2	2829
618.4	2814
618.6	2793
618.8	2771
619.0	2757
619.2	2740
619.4	2725
619.6	2711
619.8	2690
620.0	2673
620.2	2664
620.4	2656
620.6	2643
620.8	2626
621.0	2608
621.2	2592
621.4	2576
621.6	2560
621.8	2540
622.0	2523
622.2	2509
622.4	2499
622.6	2483
622.8	2468
623.0	2451
623.2	2437
623.4	2420
623.6	2405
623.8	2387
624.0	2374
624.2	2360
624.4	2352
624.6	2336
624.8	2321
625.0	2304
625.2	2292
625.4	2279
625.6	2269
625.8	2255
626.0	2238
626.2	2219
626.4	2207
626.6	2192
626.8	2182
627.0	2172
627.2	2159
627.4	2144
627.6	2130
627.8	2114
628.0	2099
628.2	2087
628.4	2077
628.6	2063
628.8	2048
629.0	2033
629.2	2014
629.4	2001
629.6	1987
629.8	1978
630.0	1969
630.2	1959
630.4	1947
630.6	1936
630.8	1922
631.0	1910
631.2	1897
631.4	1883
631.6	1873
631.8	1863
632.0	1850
632.2	1839
632.4	1827
632.6	1817
632.8	1807
633.0	1795
633.2	1779
633.4	1764
633.6	1755
633.8	1747
634.0	1739
634.2	1730
634.4	1716
634.6	1703
634.8	1693
635.0	1684
635.2	1674
635.4	1667
635.6	1654
635.8	1640
636.0	1627
636.2	1617
636.4	1606
636.6	1595
636.8	1582
637.0	1569
637.2	1558
637.4	1552
637.6	1545
637.8	1533
638.0	1522
638.2	1513
638.4	1502
638.6	1491
638.8	1480
639.0	1469
639.2	1461
639.4	1453
639.6	1445
639.8	1435
640.0	1427
640.2	1416
640.4	1408
640.6	1399
640.8	1388
641.0	1379
641.2	1370
641.4	1360
641.6	1352
641.8	1345
642.0	1338
642.2	1331
642.4	1322
642.6	1313
642.8	1300
643.0	1290
643.2	1283
643.4	1273
643.6	1263
643.8	1256
644.0	1246
644.2	1237
644.4	1230
644.6	1220
644.8	1210
645.0	1204
645.2	1198
645.4	1191
645.6	1184
645.8	1176
646.0	1166
646.2	1159
646.4	1153
646.6	1145
646.8	1136
647.0	1125
647.2	1117
647.4	1108
647.6	1102
647.8	1097
648.0	1091
648.2	1083
648.4	1078
648.6	1068
648.8	1058
649.0	1048
649.2	1044
649.4	1040
649.6	1037
649.8	1027
650.0	1019
650.2	1010
650.4	1003
650.6	996.2
650.8	990.7
651.0	982.2
651.2	977.5
651.4	973.6
651.6	967.4
651.8	958.9
652.0	950.4
652.2	942.1
652.4	935.9
652.6	931.8
652.8	928.4
653.0	921.2
653.2	914.2
653.4	904.8
653.6	898.2
653.8	893.7
654.0	889.9
654.2	884.9
654.4	879.6
654.6	870.7
654.8	862.9
655.0	857.6
655.2	853.2
655.4	848.0
655.6	841.2
655.8	833.0
656.0	825.6
656.2	821.4
656.4	816.5
656.6	809.5
656.8	802.5
657.0	796.1
657.2	791.0
657.4	788.8
657.6	783.2
657.8	776.3
658.0	768.6
658.2	762.7
658.4	758.3
658.6	755.9
658.8	752.4
659.0	747.2
659.2	739.5
659.4	732.9
659.6	728.5
659.8	724.2
660.0	720.6
660.2	717.1
660.4	712.5
660.6	705.5
660.8	698.7
661.0	691.8
661.2	686.5
661.4	681.1
661.6	675.8
661.8	670.3
662.0	665.3
662.2	661.7
662.4	658.9
662.6	655.1
662.8	650.6
663.0	644.9
663.2	640.3
663.4	635.8
663.6	631.5
663.8	628.8
664.0	625.4
664.2	619.7
664.4	616.1
664.6	612.4
664.8	606.4
665.0	602.7
665.2	598.4
665.4	594.1
665.6	591.5
665.8	588.4
666.0	581.9
666.2	578.3
666.4	572.2
666.6	567.9
666.8	563.1
667.0	557.7
667.2	554.5
667.4	550.3
667.6	546.4
667.8	543.1
668.0	538.8
668.2	534.7
668.4	532.4
668.6	527.2
668.8	522.5
669.0	517.5
669.2	513.2
669.4	508.4
669.6	505.0
669.8	502.4
670.0	499.7
670.2	498.0
670.4	495.7
670.6	490.5
670.8	487.4
671.0	483.3
671.2	479.3
671.4	475.5
671.6	472.5
671.8	468.1
672.0	465.2
672.2	462.3
672.4	459.5
672.6	455.5
672.8	453.1
673.0	449.3
673.2	445.0
673.4	442.0
673.6	438.8
673.8	434.4
674.0	432.4
674.2	430.6
674.4	427.1
674.6	425.1
674.8	421.9
675.0	417.9
675.2	415.2
675.4	412.2
675.6	408.4
675.8	407.0
676.0	404.5
676.2	401.6
676.4	399.0
676.6	394.3
676.8	390.4
677.0	387.2
677.2	384.8
677.4	380.6
677.6	377.8
677.8	374.5
678.0	372.2
678.2	369.5
678.4	367.8
678.6	363.7
678.8	360.2
679.0	357.0
679.2	354.3
679.4	352.0
679.6	350.3
679.8	347.6
680.0	345.0
680.2	342.1
680.4	339.1
680.6	336.9
680.8	334.7
681.0	332.3
681.2	331.7
681.4	330.0
681.6	326.8
681.8	324.2
682.0	321.8
682.2	318.4
682.4	316.0
682.6	312.5
682.8	308.7
683.0	306.8
683.2	305.1
683.4	302.9
683.6	300.9
683.8	297.7
684.0	295.7
684.2	294.8
684.4	294.6
684.6	293.2
684.8	292.1
685.0	288.0
685.2	284.8
685.4	282.4
685.6	280.2
685.8	277.6
686.0	275.3
686.2	272.8
686.4	271.3
686.6	270.1
686.8	268.5
687.0	266.5
687.2	262.9
687.4	260.5
687.6	258.4
687.8	257.2
688.0	256.5
688.2	254.2
688.4	251.6
688.6	248.9
688.8	246.2
689.0	244.2
689.2	243.3
689.4	241.7
689.6	240.9
689.8	239.3
690.0	237.1
690.2	235.2
690.4	234.0
690.6	232.9
690.8	232.1
691.0	230.3
691.2	228.0
691.4	225.8
691.6	223.6
691.8	221.5
692.0	220.6
692.2	219.6
692.4	217.9
692.6	217.1
692.8	215.0
693.0	212.4
693.2	211.0
693.4	209.4
693.6	208.1
693.8	208.1
694.0	207.3
694.2	205.9
694.4	204.2
694.6	200.5
694.8	197.4
695.0	195.7
695.2	194.7
695.4	194.0
695.6	193.6
695.8	191.3
696.0	189.1
696.2	188.1
696.4	187.1
696.6	187.0
696.8	186.5
697.0	184.6
697.2	182.6
697.4	182.1
697.6	180.6
697.8	180.2
698.0	179.6
698.2	177.7
698.4	175.5
698.6	174.6
698.8	173.0
699.0	171.9
699.2	171.9
699.4	171.1
699.6	169.0
699.8	167.2
700.0	166.3
700.2	165.0
700.4	164.3
700.6	163.3
700.8	161.5
701.0	161.5
701.2	160.8
701.4	160.1
701.6	158.4
701.8	156.5
702.0	154.7
702.2	154.7
702.4	153.8
702.6	153.7
702.8	152.3
703.0	150.9
703.2	149.4
703.4	148.2
703.6	148.1
703.8	148.4
704.0	147.5
704.2	146.5
704.4	145.2
704.6	143.2
704.8	141.7
705.0	141.1
705.2	140.2
705.4	139.6
705.6	138.7
705.8	136.7
706.0	135.2
706.2	134.4
706.4	133.5
706.6	133.5
706.8	133.4
707.0	132.7
707.2	132.4
707.4	131.4
707.6	129.9
707.8	128.8
708.0	128.0
708.2	126.8
708.4	125.8
708.6	124.4
708.8	123.0
709.0	122.0
709.2	121.5
709.4	121.2
709.6	121.3
709.8	120.8
710.0	120.0
710.2	118.8
710.4	117.6
710.6	116.6
710.8	116.4
711.0	116.2
711.2	115.5
711.4	114.8
711.6	113.8
711.8	112.8
712.0	112.4
712.2	111.5
712.4	109.9
712.6	108.6
712.8	107.1
713.0	106.0
713.2	105.8
713.4	105.5
713.6	105.1
713.8	104.9
714.0	103.9
714.2	102.4
714.4	101.4
714.6	100.2
714.8	100.3
715.0	99.77
715.2	99.12
715.4	98.53
715.6	97.65
715.8	96.50
716.0	96.53
716.2	95.44
716.4	95.19
716.6	94.93
716.8	94.20
717.0	93.20
717.2	92.36
717.4	91.85
717.6	91.09
717.8	89.77
718.0	89.27
718.2	89.22
718.4	89.18
718.6	88.92
718.8	87.71
719.0	86.63
719.2	85.76
719.4	85.49
719.6	84.71
719.8	83.91
720.0	83.51
720.2	83.04
720.4	82.01
720.6	81.47
720.8	79.89
721.0	79.04
721.2	78.97
721.4	78.67
721.6	78.31
721.8	78.22
722.0	76.84
722.2	76.15
722.4	76.06
722.6	75.36
722.8	74.65
723.0	74.23
723.2	72.97
723.4	72.82
723.6	72.59
723.8	71.97
724.0	71.51
724.2	70.68
724.4	69.21
724.6	68.72
724.8	68.19
725.0	67.84
725.2	67.65
725.4	67.05
725.6	66.02
725.8	65.65
726.0	64.86
726.2	64.05
726.4	63.67
726.6	63.53
726.8	63.25
727.0	63.65
727.2	63.15
727.4	62.60
727.6	61.66
727.8	60.74
728.0	59.42
728.2	59.07
728.4	58.99
728.6	59.12
728.8	58.52
729.0	57.50
729.2	56.40
729.4	56.39
729.6	56.91
729.8	57.13
730.0	56.32
730.2	55.47
730.4	54.69
730.6	54.59
730.8	54.27
731.0	53.64
731.2	52.57
731.4	52.14
731.6	51.82
731.8	51.89
732.0	51.58
732.2	50.64
732.4	49.94
732.6	49.40
732.8	49.19
733.0	48.87
733.2	48.84
733.4	48.45
733.6	48.46
733.8	47.98
734.0	47.28
734.2	46.61
734.4	46.40
734.6	45.94
734.8	45.88
735.0	45.74
735.2	45.28
735.4	45.31
735.6	44.94
735.8	44.13
736.0	43.63
736.2	42.85
736.4	42.31
736.6	42.00
736.8	41.69
737.0	41.19
737.2	41.14
737.4	40.88
737.6	41.14
737.8	40.86
738.0	40.59
738.2	39.93
738.4	39.35
738.6	38.82
738.8	38.43
739.0	38.14
739.2	38.30
739.4	38.38
739.6	38.71
739.8	38.29
740.0	37.71
740.2	37.61
740.4	37.58
740.6	37.22
740.8	37.27
741.0	36.49
741.2	35.74
741.4	35.44
741.6	35.56
741.8	35.68
742.0	35.31
742.2	34.72
742.4	34.39
742.6	33.65
742.8	33.39
743.0	33.63
743.2	32.89
743.4	32.87
743.6	33.16
743.8	33.22
744.0	33.08
744.2	32.61
744.4	31.64
744.6	31.18
744.8	30.59
745.0	30.66
745.2	30.53
745.4	30.07
745.6	30.17
745.8	30.26
746.0	30.11
746.2	29.71
746.4	29.38
746.6	28.73
746.8	28.07
747.0	28.02
747.2	28.37
747.4	28.11
747.6	27.95
747.8	27.41
748.0	26.83
748.2	27.07
748.4	27.32
748.6	27.35
748.8	27.18
749.0	26.52
749.2	25.98
749.4	25.71
749.6	25.37
749.8	25.75
750.0	25.93
750.2	25.83
750.4	25.61
750.6	25.13
750.8	24.66
751.0	24.27
751.2	24.24
751.4	24.29
751.6	24.17
751.8	23.58
752.0	23.46
752.2	23.07
752.4	23.32
752.6	23.33
752.8	23.38
753.0	22.94
753.2	22.91
753.4	22.43
753.6	22.17
753.8	21.89
754.0	21.90
754.2	21.90
754.4	21.68
754.6	21.77
754.8	21.56
755.0	21.53
755.2	21.33
755.4	21.28
755.6	20.80
755.8	20.67
756.0	20.24
756.2	20.07
756.4	19.97
756.6	19.95
756.8	19.97
757.0	20.01
757.2	19.81
757.4	19.82
757.6	19.51
757.8	19.31
758.0	19.22
758.2	19.04
758.4	18.87
758.6	18.91
758.8	18.72
759.0	18.75
759.2	18.39
759.4	18.18
759.6	18.14
759.8	18.16
760.0	18.27
760.2	18.21
760.4	17.89
760.6	17.80
760.8	17.52
761.0	17.17
761.2	16.82
761.4	16.34
761.6	16.26
761.8	16.58
762.0	16.64
762.2	16.58
762.4	16.40
762.6	16.07
762.8	16.21
763.0	16.43
763.2	16.42
763.4	16.30
763.6	16.34
763.8	16.07
764.0	15.69
764.2	15.35
764.4	15.27
764.6	15.10
764.8	15.46
765.0	15.38
765.2	14.98
765.4	14.75
765.6	14.63
765.8	14.65
766.0	14.67
766.2	14.42
766.4	14.25
766.6	13.89
766.8	13.71
767.0	13.78
767.2	13.75
767.4	13.46
767.6	13.64
767.8	13.54
768.0	13.62
768.2	13.75
768.4	13.84
768.6	13.55
768.8	13.41
769.0	13.18
769.2	12.81
769.4	12.68
769.6	12.58
769.8	12.25
770.0	12.07
770.2	12.11
770.4	12.02
770.6	12.16
770.8	12.22
771.0	12.08
771.2	11.85
771.4	11.81
771.6	11.54
771.8	11.44
772.0	11.40
772.2	11.32
772.4	11.36
772.6	11.54
772.8	11.71
773.0	11.72
773.2	11.46
773.4	11.04
773.6	10.74
773.8	10.62
774.0	10.76
774.2	10.86
774.4	10.83
774.6	10.69
774.8	10.44
775.0	10.26
775.2	10.27
775.4	10.32
775.6	10.55
775.8	10.54
776.0	10.34
776.2	10.02
776.4	9.922
776.6	9.876
776.8	10.06
777.0	9.945
777.2	9.939
777.4	9.740
777.6	9.737
777.8	9.881
778.0	9.934
778.2	9.639
778.4	9.548
778.6	9.387
778.8	9.369
779.0	9.342
779.2	9.392
779.4	9.335
779.6	9.228
779.8	9.392
780.0	9.254
780.2	9.275
780.4	9.283
780.6	9.331
780.8	9.239
781.0	9.312
781.2	9.075
781.4	9.127
781.6	8.892
781.8	8.574
782.0	8.375
782.2	8.307
782.4	8.311
782.6	8.453
782.8	8.481
783.0	8.455
783.2	8.560
783.4	8.511
783.6	8.463
783.8	8.517
784.0	8.483
784.2	8.383
784.4	8.476
784.6	8.514
784.8	8.550
785.0	8.579
785.2	8.549
785.4	8.313
785.6	8.315
785.8	8.363
786.0	8.337
786.2	8.252
786.4	8.064
786.6	8.126
786.8	8.124
787.0	8.289
787.2	8.301
787.4	8.189
787.6	8.123
787.8	8.303
788.0	8.220
788.2	8.168
788.4	8.017
788.6	7.949
788.8	8.008
789.0	8.175
789.2	8.187
789.4	8.033
789.6	8.136
789.8	8.164
790.0	8.114
790.2	8.254
790.4	8.362
790.6	8.363
790.8	8.491
791.0	8.359
791.2	8.308
791.4	8.188
791.6	8.378
791.8	8.594
792.0	8.707
792.2	8.654
792.4	8.498
792.6	8.424
792.8	8.373
793.0	8.531
793.2	8.707
793.4	8.799
793.6	8.779
793.8	8.839
794.0	8.578
794.2	8.571
794.4	8.671
794.6	8.702
794.8	8.807
795.0	8.864
795.2	8.831
795.4	8.956
795.6	8.992
795.8	8.772
796.0	8.922
796.2	8.926
796.4	8.824
796.6	8.867
796.8	8.990
797.0	9.009
797.2	9.226
797.4	9.174
797.6	8.887
797.8	8.809
798.0	9.037
798.2	9.216
798.4	9.474
798.6	9.508
798.8	9.234
799.0	9.114
799.2	8.944
799.4	9.089
799.6	9.451
799.8	9.549
800.0	9.059

