Sample:	'20211010A(EM)
File name:	yuan s2-.FDS
Run date:	'16:29:08, 03/23/2023
Operator:	Administrator
Comment:	'

Instrument
Model:	F-4700 FL Spectrophotometer
Serial number:	2019-001
ROM Version:	5J24010 00

Instrument parameters
Measurement type:	Wavelength scan
Scan mode:	Emission
Data mode:	Fluorescence
EX WL:	530.0 nm
EM  Start WL:	550.0 nm
EM  End WL:	900.0 nm
Scan speed:	1200 nm/min
Delay:	0.0 s
EX Slit:	10.0 nm
EM Slit:	10.0 nm
PMT Voltage:	660 V
Response:	0.002 s
Corrected spectra:	Off
Shutter control:	On

Processing performed
Savitsky-Golay smoothed
Smoothing order:	3
Number of points:	7
Number of times:	1

Peak integration
Integration method:	Rectangular
Sensitivity:	1
Threshold:	1.000

Peaks
No.	Start(nm)	Apex(nm)	End(nm)	Height(Data)	Valley(nm)	Valley(Data)
1	550.0	622.2	623.0	7899	623.0	7848
2	623.0	623.8	624.4	7911	624.4	7865
3	624.4	625.4	627.4	7916	627.4	7799
4	627.4	628.0	792.4	7857	792.4	106.1
5	792.4	793.4	798.2	111.4	798.2	97.27
6	798.2	799.2	802.2	101.2	802.2	88.92
7	802.2	803.0	807.6	92.37	807.6	81.16
8	807.6	808.6	831.8	86.11	831.8	37.65
9	831.8	832.8	837.4	39.54	837.4	26.82
10	837.4	838.4	850.0	31.29	850.0	11.59
11	850.0	850.6	861.8	13.36	861.8	5.256
12	861.8	863.2	869.6	6.464	869.6	3.411
13	869.6	870.4	884.6	4.461	884.6	2.540
14	884.6	885.2	886.0	4.174	886.0	2.304
15	886.0	890.8	897.0	3.889	897.0	2.078

Data points
nm	Data
550.0	382.6
550.2	379.3
550.4	385.2
550.6	395.6
550.8	402.4
551.0	407.4
551.2	418.0
551.4	427.3
551.6	436.0
551.8	442.8
552.0	444.6
552.2	448.0
552.4	455.3
552.6	462.2
552.8	470.1
553.0	477.7
553.2	483.9
553.4	490.0
553.6	493.3
553.8	496.2
554.0	504.2
554.2	513.2
554.4	524.0
554.6	538.8
554.8	545.3
555.0	549.3
555.2	554.6
555.4	560.3
555.6	570.1
555.8	580.4
556.0	592.1
556.2	604.1
556.4	614.4
556.6	628.6
556.8	639.2
557.0	644.7
557.2	651.3
557.4	661.0
557.6	668.3
557.8	677.4
558.0	679.8
558.2	684.5
558.4	687.6
558.6	702.0
558.8	717.4
559.0	734.5
559.2	750.2
559.4	767.3
559.6	777.4
559.8	783.2
560.0	791.7
560.2	802.0
560.4	816.1
560.6	833.8
560.8	844.2
561.0	854.7
561.2	863.4
561.4	875.5
561.6	885.0
561.8	899.5
562.0	914.0
562.2	927.1
562.4	943.0
562.6	962.2
562.8	972.1
563.0	982.7
563.2	999.2
563.4	1012
563.6	1037
563.8	1047
564.0	1054
564.2	1058
564.4	1064
564.6	1086
564.8	1112
565.0	1134
565.2	1161
565.4	1177
565.6	1188
565.8	1210
566.0	1223
566.2	1246
566.4	1268
566.6	1275
566.8	1279
567.0	1290
567.2	1301
567.4	1321
567.6	1342
567.8	1351
568.0	1365
568.2	1389
568.4	1417
568.6	1439
568.8	1452
569.0	1464
569.2	1477
569.4	1500
569.6	1524
569.8	1550
570.0	1584
570.2	1606
570.4	1630
570.6	1651
570.8	1660
571.0	1679
571.2	1702
571.4	1712
571.6	1732
571.8	1756
572.0	1779
572.2	1804
572.4	1822
572.6	1841
572.8	1860
573.0	1891
573.2	1914
573.4	1926
573.6	1945
573.8	1971
574.0	2002
574.2	2024
574.4	2047
574.6	2066
574.8	2098
575.0	2131
575.2	2163
575.4	2181
575.6	2214
575.8	2238
576.0	2255
576.2	2268
576.4	2282
576.6	2302
576.8	2332
577.0	2376
577.2	2411
577.4	2437
577.6	2466
577.8	2485
578.0	2499
578.2	2528
578.4	2544
578.6	2560
578.8	2594
579.0	2625
579.2	2654
579.4	2683
579.6	2703
579.8	2727
580.0	2767
580.2	2807
580.4	2845
580.6	2876
580.8	2893
581.0	2916
581.2	2946
581.4	2975
581.6	3000
581.8	3029
582.0	3058
582.2	3096
582.4	3129
582.6	3161
582.8	3193
583.0	3224
583.2	3244
583.4	3263
583.6	3285
583.8	3318
584.0	3356
584.2	3390
584.4	3420
584.6	3455
584.8	3495
585.0	3540
585.2	3572
585.4	3599
585.6	3638
585.8	3667
586.0	3705
586.2	3748
586.4	3759
586.6	3771
586.8	3800
587.0	3831
587.2	3877
587.4	3927
587.6	3945
587.8	3964
588.0	3995
588.2	4023
588.4	4065
588.6	4107
588.8	4140
589.0	4162
589.2	4188
589.4	4212
589.6	4255
589.8	4299
590.0	4347
590.2	4383
590.4	4403
590.6	4437
590.8	4465
591.0	4502
591.2	4541
591.4	4578
591.6	4602
591.8	4642
592.0	4655
592.2	4679
592.4	4695
592.6	4730
592.8	4774
593.0	4822
593.2	4859
593.4	4896
593.6	4912
593.8	4936
594.0	4979
594.2	5018
594.4	5043
594.6	5086
594.8	5123
595.0	5152
595.2	5204
595.4	5247
595.6	5258
595.8	5298
596.0	5337
596.2	5379
596.4	5425
596.6	5458
596.8	5471
597.0	5492
597.2	5510
597.4	5555
597.6	5603
597.8	5640
598.0	5659
598.2	5685
598.4	5695
598.6	5720
598.8	5766
599.0	5795
599.2	5825
599.4	5843
599.6	5863
599.8	5895
600.0	5936
600.2	5978
600.4	6029
600.6	6037
600.8	6050
601.0	6086
601.2	6110
601.4	6163
601.6	6224
601.8	6251
602.0	6260
602.2	6292
602.4	6295
602.6	6313
602.8	6342
603.0	6371
603.2	6391
603.4	6450
603.6	6471
603.8	6492
604.0	6519
604.2	6551
604.4	6580
604.6	6625
604.8	6637
605.0	6662
605.2	6673
605.4	6691
605.6	6727
605.8	6745
606.0	6762
606.2	6788
606.4	6799
606.6	6820
606.8	6860
607.0	6897
607.2	6939
607.4	6951
607.6	6958
607.8	6973
608.0	6993
608.2	7035
608.4	7075
608.6	7094
608.8	7105
609.0	7119
609.2	7129
609.4	7147
609.6	7157
609.8	7176
610.0	7197
610.2	7243
610.4	7269
610.6	7281
610.8	7277
611.0	7283
611.2	7312
611.4	7348
611.6	7346
611.8	7365
612.0	7370
612.2	7402
612.4	7435
612.6	7450
612.8	7442
613.0	7458
613.2	7468
613.4	7500
613.6	7527
613.8	7542
614.0	7556
614.2	7583
614.4	7599
614.6	7633
614.8	7639
615.0	7636
615.2	7632
615.4	7636
615.6	7649
615.8	7679
616.0	7683
616.2	7699
616.4	7687
616.6	7694
616.8	7709
617.0	7712
617.2	7734
617.4	7732
617.6	7732
617.8	7734
618.0	7752
618.2	7768
618.4	7790
618.6	7786
618.8	7803
619.0	7809
619.2	7802
619.4	7799
619.6	7797
619.8	7811
620.0	7837
620.2	7869
620.4	7875
620.6	7873
620.8	7888
621.0	7890
621.2	7881
621.4	7877
621.6	7877
621.8	7871
622.0	7885
622.2	7899
622.4	7888
622.6	7876
622.8	7854
623.0	7848
623.2	7863
623.4	7898
623.6	7901
623.8	7911
624.0	7886
624.2	7877
624.4	7865
624.6	7875
624.8	7891
625.0	7910
625.2	7913
625.4	7916
625.6	7881
625.8	7853
626.0	7848
626.2	7858
626.4	7878
626.6	7890
626.8	7868
627.0	7837
627.2	7809
627.4	7799
627.6	7810
627.8	7842
628.0	7857
628.2	7849
628.4	7828
628.6	7812
628.8	7793
629.0	7795
629.2	7781
629.4	7756
629.6	7752
629.8	7742
630.0	7738
630.2	7752
630.4	7749
630.6	7735
630.8	7720
631.0	7702
631.2	7695
631.4	7702
631.6	7694
631.8	7678
632.0	7659
632.2	7646
632.4	7632
632.6	7639
632.8	7627
633.0	7619
633.2	7605
633.4	7607
633.6	7606
633.8	7598
634.0	7548
634.2	7510
634.4	7482
634.6	7503
634.8	7515
635.0	7523
635.2	7468
635.4	7431
635.6	7405
635.8	7403
636.0	7409
636.2	7432
636.4	7421
636.6	7396
636.8	7381
637.0	7372
637.2	7353
637.4	7332
637.6	7311
637.8	7272
638.0	7246
638.2	7249
638.4	7247
638.6	7232
638.8	7217
639.0	7204
639.2	7170
639.4	7152
639.6	7143
639.8	7118
640.0	7109
640.2	7102
640.4	7076
640.6	7051
640.8	7041
641.0	7018
641.2	7027
641.4	7016
641.6	6995
641.8	6975
642.0	6953
642.2	6935
642.4	6923
642.6	6892
642.8	6867
643.0	6855
643.2	6809
643.4	6805
643.6	6796
643.8	6777
644.0	6761
644.2	6737
644.4	6685
644.6	6665
644.8	6661
645.0	6669
645.2	6652
645.4	6630
645.6	6601
645.8	6556
646.0	6539
646.2	6541
646.4	6519
646.6	6501
646.8	6478
647.0	6442
647.2	6430
647.4	6426
647.6	6401
647.8	6380
648.0	6350
648.2	6338
648.4	6325
648.6	6322
648.8	6295
649.0	6277
649.2	6262
649.4	6250
649.6	6218
649.8	6198
650.0	6157
650.2	6127
650.4	6136
650.6	6124
650.8	6118
651.0	6103
651.2	6066
651.4	6025
651.6	5980
651.8	5939
652.0	5915
652.2	5918
652.4	5919
652.6	5910
652.8	5875
653.0	5834
653.2	5788
653.4	5778
653.6	5772
653.8	5764
654.0	5750
654.2	5729
654.4	5695
654.6	5658
654.8	5632
655.0	5609
655.2	5598
655.4	5589
655.6	5578
655.8	5551
656.0	5526
656.2	5502
656.4	5478
656.6	5455
656.8	5449
657.0	5429
657.2	5404
657.4	5380
657.6	5345
657.8	5318
658.0	5307
658.2	5294
658.4	5282
658.6	5270
658.8	5238
659.0	5207
659.2	5182
659.4	5164
659.6	5141
659.8	5131
660.0	5106
660.2	5086
660.4	5064
660.6	5044
660.8	5025
661.0	5019
661.2	4986
661.4	4956
661.6	4936
661.8	4905
662.0	4892
662.2	4871
662.4	4837
662.6	4796
662.8	4793
663.0	4774
663.2	4762
663.4	4725
663.6	4696
663.8	4658
664.0	4655
664.2	4655
664.4	4648
664.6	4618
664.8	4595
665.0	4569
665.2	4555
665.4	4538
665.6	4523
665.8	4499
666.0	4483
666.2	4466
666.4	4448
666.6	4418
666.8	4399
667.0	4371
667.2	4346
667.4	4322
667.6	4298
667.8	4286
668.0	4270
668.2	4257
668.4	4246
668.6	4230
668.8	4194
669.0	4179
669.2	4159
669.4	4141
669.6	4136
669.8	4129
670.0	4096
670.2	4083
670.4	4066
670.6	4035
670.8	4004
671.0	3989
671.2	3972
671.4	3963
671.6	3963
671.8	3938
672.0	3898
672.2	3863
672.4	3834
672.6	3813
672.8	3818
673.0	3809
673.2	3800
673.4	3775
673.6	3751
673.8	3721
674.0	3686
674.2	3671
674.4	3675
674.6	3667
674.8	3657
675.0	3644
675.2	3599
675.4	3586
675.6	3583
675.8	3573
676.0	3555
676.2	3552
676.4	3516
676.6	3496
676.8	3479
677.0	3457
677.2	3426
677.4	3413
677.6	3389
677.8	3371
678.0	3362
678.2	3346
678.4	3324
678.6	3313
678.8	3299
679.0	3274
679.2	3249
679.4	3226
679.6	3212
679.8	3198
680.0	3191
680.2	3178
680.4	3158
680.6	3142
680.8	3127
681.0	3099
681.2	3087
681.4	3077
681.6	3066
681.8	3052
682.0	3039
682.2	3020
682.4	3001
682.6	2987
682.8	2968
683.0	2951
683.2	2938
683.4	2929
683.6	2909
683.8	2895
684.0	2874
684.2	2866
684.4	2845
684.6	2846
684.8	2838
685.0	2819
685.2	2802
685.4	2787
685.6	2762
685.8	2751
686.0	2729
686.2	2698
686.4	2681
686.6	2674
686.8	2675
687.0	2678
687.2	2671
687.4	2647
687.6	2625
687.8	2604
688.0	2593
688.2	2584
688.4	2572
688.6	2555
688.8	2551
689.0	2535
689.2	2518
689.4	2498
689.6	2473
689.8	2458
690.0	2452
690.2	2446
690.4	2430
690.6	2418
690.8	2407
691.0	2399
691.2	2383
691.4	2373
691.6	2363
691.8	2347
692.0	2339
692.2	2326
692.4	2308
692.6	2289
692.8	2280
693.0	2265
693.2	2258
693.4	2245
693.6	2235
693.8	2230
694.0	2216
694.2	2199
694.4	2187
694.6	2171
694.8	2166
695.0	2166
695.2	2156
695.4	2144
695.6	2139
695.8	2123
696.0	2121
696.2	2110
696.4	2102
696.6	2087
696.8	2070
697.0	2055
697.2	2047
697.4	2038
697.6	2036
697.8	2026
698.0	2010
698.2	2000
698.4	1988
698.6	1980
698.8	1963
699.0	1952
699.2	1940
699.4	1935
699.6	1929
699.8	1936
700.0	1921
700.2	1917
700.4	1893
700.6	1879
700.8	1864
701.0	1863
701.2	1858
701.4	1858
701.6	1851
701.8	1843
702.0	1838
702.2	1820
702.4	1808
702.6	1791
702.8	1786
703.0	1779
703.2	1771
703.4	1759
703.6	1756
703.8	1751
704.0	1747
704.2	1739
704.4	1731
704.6	1723
704.8	1712
705.0	1704
705.2	1692
705.4	1673
705.6	1661
705.8	1651
706.0	1644
706.2	1635
706.4	1629
706.6	1619
706.8	1615
707.0	1615
707.2	1610
707.4	1604
707.6	1592
707.8	1581
708.0	1573
708.2	1564
708.4	1551
708.6	1540
708.8	1533
709.0	1530
709.2	1523
709.4	1518
709.6	1505
709.8	1489
710.0	1481
710.2	1472
710.4	1460
710.6	1460
710.8	1453
711.0	1447
711.2	1434
711.4	1425
711.6	1418
711.8	1417
712.0	1410
712.2	1406
712.4	1398
712.6	1390
712.8	1386
713.0	1379
713.2	1367
713.4	1365
713.6	1356
713.8	1344
714.0	1334
714.2	1325
714.4	1312
714.6	1311
714.8	1310
715.0	1309
715.2	1298
715.4	1286
715.6	1272
715.8	1259
716.0	1253
716.2	1251
716.4	1248
716.6	1248
716.8	1244
717.0	1228
717.2	1218
717.4	1211
717.6	1207
717.8	1206
718.0	1195
718.2	1178
718.4	1167
718.6	1163
718.8	1163
719.0	1161
719.2	1153
719.4	1144
719.6	1137
719.8	1132
720.0	1126
720.2	1109
720.4	1091
720.6	1081
720.8	1077
721.0	1075
721.2	1074
721.4	1064
721.6	1051
721.8	1045
722.0	1042
722.2	1033
722.4	1022
722.6	1013
722.8	1003
723.0	997.5
723.2	992.8
723.4	986.5
723.6	982.8
723.8	983.3
724.0	975.7
724.2	966.4
724.4	955.6
724.6	948.7
724.8	944.0
725.0	938.9
725.2	933.8
725.4	932.9
725.6	927.9
725.8	921.7
726.0	912.5
726.2	901.2
726.4	898.0
726.6	891.4
726.8	886.8
727.0	886.4
727.2	887.7
727.4	879.7
727.6	872.7
727.8	857.4
728.0	848.8
728.2	843.6
728.4	841.4
728.6	830.6
728.8	825.3
729.0	818.1
729.2	811.8
729.4	805.9
729.6	802.8
729.8	795.7
730.0	793.0
730.2	791.1
730.4	787.6
730.6	784.3
730.8	778.1
731.0	772.9
731.2	769.7
731.4	765.6
731.6	763.7
731.8	756.5
732.0	741.7
732.2	737.3
732.4	731.0
732.6	727.4
732.8	732.2
733.0	730.7
733.2	727.5
733.4	720.9
733.6	711.5
733.8	700.1
734.0	694.4
734.2	686.7
734.4	683.6
734.6	676.7
734.8	679.1
735.0	672.3
735.2	664.2
735.4	655.7
735.6	651.7
735.8	652.6
736.0	657.9
736.2	652.9
736.4	646.4
736.6	636.9
736.8	629.0
737.0	624.4
737.2	623.1
737.4	623.7
737.6	625.2
737.8	622.3
738.0	611.9
738.2	598.4
738.4	591.4
738.6	588.2
738.8	583.4
739.0	583.8
739.2	579.8
739.4	576.3
739.6	578.2
739.8	574.3
740.0	569.8
740.2	569.5
740.4	563.8
740.6	560.4
740.8	559.4
741.0	553.7
741.2	549.1
741.4	543.4
741.6	537.1
741.8	531.3
742.0	528.1
742.2	528.2
742.4	526.2
742.6	525.0
742.8	524.7
743.0	519.3
743.2	507.5
743.4	498.4
743.6	492.2
743.8	487.0
744.0	486.7
744.2	489.1
744.4	485.7
744.6	483.7
744.8	484.7
745.0	474.8
745.2	471.4
745.4	472.3
745.6	466.8
745.8	463.3
746.0	463.2
746.2	458.9
746.4	455.8
746.6	454.5
746.8	447.8
747.0	444.9
747.2	446.2
747.4	450.9
747.6	447.1
747.8	445.2
748.0	435.5
748.2	425.0
748.4	418.8
748.6	415.6
748.8	413.5
749.0	414.7
749.2	408.8
749.4	405.4
749.6	403.2
749.8	403.2
750.0	407.7
750.2	407.4
750.4	403.2
750.6	400.5
750.8	396.0
751.0	391.6
751.2	391.0
751.4	388.3
751.6	387.2
751.8	388.2
752.0	384.2
752.2	375.5
752.4	371.7
752.6	365.4
752.8	363.4
753.0	363.8
753.2	364.5
753.4	363.7
753.6	364.5
753.8	360.5
754.0	359.2
754.2	355.9
754.4	355.2
754.6	351.5
754.8	346.7
755.0	341.6
755.2	340.5
755.4	341.2
755.6	341.4
755.8	339.8
756.0	335.8
756.2	331.5
756.4	331.7
756.6	331.2
756.8	327.7
757.0	326.1
757.2	319.2
757.4	316.3
757.6	315.9
757.8	311.9
758.0	307.3
758.2	307.3
758.4	302.5
758.6	303.9
758.8	303.1
759.0	297.8
759.2	292.1
759.4	289.2
759.6	285.5
759.8	287.1
760.0	286.1
760.2	282.8
760.4	283.9
760.6	282.9
760.8	282.6
761.0	281.3
761.2	276.4
761.4	271.6
761.6	270.7
761.8	269.1
762.0	266.6
762.2	266.1
762.4	266.2
762.6	266.0
762.8	268.5
763.0	270.0
763.2	264.2
763.4	258.3
763.6	255.1
763.8	251.3
764.0	251.5
764.2	252.1
764.4	249.6
764.6	244.8
764.8	247.4
765.0	244.9
765.2	241.8
765.4	237.9
765.6	235.8
765.8	234.2
766.0	235.5
766.2	233.6
766.4	229.1
766.6	223.3
766.8	221.1
767.0	220.7
767.2	220.8
767.4	225.0
767.6	225.3
767.8	222.9
768.0	219.4
768.2	214.9
768.4	212.1
768.6	213.9
768.8	214.4
769.0	213.3
769.2	213.7
769.4	209.7
769.6	206.1
769.8	204.7
770.0	203.3
770.2	200.0
770.4	198.0
770.6	194.1
770.8	191.7
771.0	193.3
771.2	197.8
771.4	198.8
771.6	195.3
771.8	191.5
772.0	186.2
772.2	185.6
772.4	186.9
772.6	186.0
772.8	182.3
773.0	178.4
773.2	177.5
773.4	180.4
773.6	182.3
773.8	181.4
774.0	179.8
774.2	176.5
774.4	174.6
774.6	176.4
774.8	176.9
775.0	174.5
775.2	172.7
775.4	170.4
775.6	163.5
775.8	163.8
776.0	164.3
776.2	162.1
776.4	161.3
776.6	160.9
776.8	159.7
777.0	162.4
777.2	162.6
777.4	160.3
777.6	159.5
777.8	157.7
778.0	156.8
778.2	154.5
778.4	153.0
778.6	152.2
778.8	152.9
779.0	151.7
779.2	149.1
779.4	146.2
779.6	146.4
779.8	147.5
780.0	149.1
780.2	147.1
780.4	147.1
780.6	146.2
780.8	145.0
781.0	144.0
781.2	143.8
781.4	140.9
781.6	139.4
781.8	137.9
782.0	136.6
782.2	135.2
782.4	135.5
782.6	135.3
782.8	135.6
783.0	136.8
783.2	138.3
783.4	138.0
783.6	133.9
783.8	129.8
784.0	129.0
784.2	129.1
784.4	128.4
784.6	128.8
784.8	125.9
785.0	126.7
785.2	128.0
785.4	129.4
785.6	127.8
785.8	125.8
786.0	122.7
786.2	122.1
786.4	121.4
786.6	123.4
786.8	124.1
787.0	123.1
787.2	120.7
787.4	119.2
787.6	119.1
787.8	119.5
788.0	120.2
788.2	120.2
788.4	117.7
788.6	117.0
788.8	116.5
789.0	115.0
789.2	115.3
789.4	114.0
789.6	113.6
789.8	113.5
790.0	115.0
790.2	115.5
790.4	114.9
790.6	112.5
790.8	111.3
791.0	109.6
791.2	109.5
791.4	111.1
791.6	111.4
791.8	110.7
792.0	108.8
792.2	108.7
792.4	106.1
792.6	106.3
792.8	106.8
793.0	109.3
793.2	110.7
793.4	111.4
793.6	109.0
793.8	106.6
794.0	103.7
794.2	105.8
794.4	106.1
794.6	106.1
794.8	105.6
795.0	104.1
795.2	103.5
795.4	104.8
795.6	105.2
795.8	105.1
796.0	104.9
796.2	103.3
796.4	103.1
796.6	101.6
796.8	100.9
797.0	100.1
797.2	100.5
797.4	100.3
797.6	99.15
797.8	97.41
798.0	98.19
798.2	97.27
798.4	97.68
798.6	99.48
798.8	98.74
799.0	99.31
799.2	101.2
799.4	99.10
799.6	98.02
799.8	98.04
800.0	96.92
800.2	96.59
800.4	97.05
800.6	97.36
800.8	96.76
801.0	95.07
801.2	93.71
801.4	91.73
801.6	91.67
801.8	92.28
802.0	90.19
802.2	88.92
802.4	89.96
802.6	91.34
802.8	91.84
803.0	92.37
803.2	91.59
803.4	91.44
803.6	88.10
803.8	88.11
804.0	88.19
804.2	89.68
804.4	90.61
804.6	90.60
804.8	85.80
805.0	85.95
805.2	86.44
805.4	86.89
805.6	85.39
805.8	86.31
806.0	85.17
806.2	84.69
806.4	84.72
806.6	85.26
806.8	83.94
807.0	84.00
807.2	82.97
807.4	81.78
807.6	81.16
807.8	82.04
808.0	83.60
808.2	83.43
808.4	84.92
808.6	86.11
808.8	84.90
809.0	83.66
809.2	81.68
809.4	78.28
809.6	78.33
809.8	77.70
810.0	76.74
810.2	78.16
810.4	77.66
810.6	77.21
810.8	76.69
811.0	76.31
811.2	74.73
811.4	74.79
811.6	75.03
811.8	73.30
812.0	72.65
812.2	75.82
812.4	75.91
812.6	74.67
812.8	74.80
813.0	72.01
813.2	70.74
813.4	71.70
813.6	71.36
813.8	71.79
814.0	74.46
814.2	75.35
814.4	74.16
814.6	71.65
814.8	70.12
815.0	68.15
815.2	68.81
815.4	68.98
815.6	67.61
815.8	67.37
816.0	67.50
816.2	66.80
816.4	68.50
816.6	68.86
816.8	68.10
817.0	67.89
817.2	67.02
817.4	66.72
817.6	67.14
817.8	66.50
818.0	66.18
818.2	64.67
818.4	63.82
818.6	62.23
818.8	60.58
819.0	61.21
819.2	61.40
819.4	61.33
819.6	61.17
819.8	60.78
820.0	60.07
820.2	61.33
820.4	60.94
820.6	60.57
820.8	60.36
821.0	60.20
821.2	58.86
821.4	58.43
821.6	57.58
821.8	56.52
822.0	56.40
822.2	56.65
822.4	55.91
822.6	56.83
822.8	56.48
823.0	55.79
823.2	55.44
823.4	55.76
823.6	54.62
823.8	55.57
824.0	54.23
824.2	53.35
824.4	53.79
824.6	54.14
824.8	52.85
825.0	52.54
825.2	51.63
825.4	51.51
825.6	50.96
825.8	51.92
826.0	50.90
826.2	49.78
826.4	49.79
826.6	49.41
826.8	48.72
827.0	50.03
827.2	50.14
827.4	48.73
827.6	47.35
827.8	45.38
828.0	43.94
828.2	43.81
828.4	44.99
828.6	44.55
828.8	45.07
829.0	45.30
829.2	45.04
829.4	44.26
829.6	44.10
829.8	42.21
830.0	41.43
830.2	41.90
830.4	41.31
830.6	40.95
830.8	41.60
831.0	40.30
831.2	39.06
831.4	38.13
831.6	37.68
831.8	37.65
832.0	38.72
832.2	38.82
832.4	39.44
832.6	39.50
832.8	39.54
833.0	38.34
833.2	35.87
833.4	34.54
833.6	34.85
833.8	34.62
834.0	34.32
834.2	34.38
834.4	33.67
834.6	34.09
834.8	34.18
835.0	33.89
835.2	33.62
835.4	32.05
835.6	31.67
835.8	31.65
836.0	31.13
836.2	31.82
836.4	32.55
836.6	31.69
836.8	31.02
837.0	29.58
837.2	27.98
837.4	26.82
837.6	27.33
837.8	28.35
838.0	28.63
838.2	29.74
838.4	31.29
838.6	30.49
838.8	29.66
839.0	29.03
839.2	26.91
839.4	27.67
839.6	28.55
839.8	27.88
840.0	26.88
840.2	26.67
840.4	24.56
840.6	24.25
840.8	23.70
841.0	23.34
841.2	22.81
841.4	23.04
841.6	22.50
841.8	22.95
842.0	22.77
842.2	22.64
842.4	22.22
842.6	21.46
842.8	21.58
843.0	21.03
843.2	21.05
843.4	21.03
843.6	20.91
843.8	20.97
844.0	21.53
844.2	20.93
844.4	20.25
844.6	19.43
844.8	18.51
845.0	18.93
845.2	18.89
845.4	18.86
845.6	17.92
845.8	17.30
846.0	16.96
846.2	16.81
846.4	16.29
846.6	16.32
846.8	16.62
847.0	17.25
847.2	16.74
847.4	16.00
847.6	15.84
847.8	15.71
848.0	15.97
848.2	16.56
848.4	15.64
848.6	14.88
848.8	14.72
849.0	14.36
849.2	14.04
849.4	13.55
849.6	12.83
849.8	11.92
850.0	11.59
850.2	12.28
850.4	13.08
850.6	13.36
850.8	13.29
851.0	12.93
851.2	12.11
851.4	11.27
851.6	11.21
851.8	11.10
852.0	10.96
852.2	11.30
852.4	11.07
852.6	11.20
852.8	11.43
853.0	10.47
853.2	9.558
853.4	9.178
853.6	9.284
853.8	9.769
854.0	9.880
854.2	9.244
854.4	8.967
854.6	8.820
854.8	8.684
855.0	8.468
855.2	8.668
855.4	8.763
855.6	8.747
855.8	8.787
856.0	8.807
856.2	8.896
856.4	9.327
856.6	9.059
856.8	8.311
857.0	7.911
857.2	7.973
857.4	8.118
857.6	8.539
857.8	8.553
858.0	8.379
858.2	7.528
858.4	7.418
858.6	7.328
858.8	7.270
859.0	6.750
859.2	6.432
859.4	5.868
859.6	6.056
859.8	6.402
860.0	6.773
860.2	6.191
860.4	6.297
860.6	6.264
860.8	6.372
861.0	6.721
861.2	6.732
861.4	6.248
861.6	5.768
861.8	5.256
862.0	5.440
862.2	5.592
862.4	5.909
862.6	5.830
862.8	6.110
863.0	6.058
863.2	6.464
863.4	6.338
863.6	5.847
863.8	5.197
864.0	5.144
864.2	4.629
864.4	4.523
864.6	4.627
864.8	4.431
865.0	4.619
865.2	4.736
865.4	4.751
865.6	4.609
865.8	4.646
866.0	4.492
866.2	4.732
866.4	5.006
866.6	4.657
866.8	4.836
867.0	4.996
867.2	4.862
867.4	4.593
867.6	4.608
867.8	4.044
868.0	4.287
868.2	4.304
868.4	4.415
868.6	4.371
868.8	4.567
869.0	4.434
869.2	4.209
869.4	3.688
869.6	3.411
869.8	3.707
870.0	3.793
870.2	4.042
870.4	4.461
870.6	4.289
870.8	4.085
871.0	4.176
871.2	3.910
871.4	3.613
871.6	3.784
871.8	3.365
872.0	3.482
872.2	3.641
872.4	3.591
872.6	3.541
872.8	4.050
873.0	3.822
873.2	3.783
873.4	3.655
873.6	3.333
873.8	3.659
874.0	4.057
874.2	3.977
874.4	3.696
874.6	3.350
874.8	2.989
875.0	2.971
875.2	3.126
875.4	3.520
875.6	3.586
875.8	3.725
876.0	3.592
876.2	3.395
876.4	3.427
876.6	3.418
876.8	3.035
877.0	2.982
877.2	2.925
877.4	3.124
877.6	3.636
877.8	3.717
878.0	3.486
878.2	3.607
878.4	3.464
878.6	2.876
878.8	2.970
879.0	2.642
879.2	2.583
879.4	3.040
879.6	3.137
879.8	3.154
880.0	3.529
880.2	3.492
880.4	3.337
880.6	3.061
880.8	2.957
881.0	2.967
881.2	2.985
881.4	3.026
881.6	2.937
881.8	2.808
882.0	2.982
882.2	2.939
882.4	3.047
882.6	3.121
882.8	3.143
883.0	3.003
883.2	3.114
883.4	2.851
883.6	2.625
883.8	2.657
884.0	2.782
884.2	2.747
884.4	2.882
884.6	2.540
884.8	2.966
885.0	3.707
885.2	4.174
885.4	3.847
885.6	3.221
885.8	2.420
886.0	2.304
886.2	2.513
886.4	3.022
886.6	2.937
886.8	3.090
887.0	3.171
887.2	3.033
887.4	3.201
887.6	3.370
887.8	3.039
888.0	2.859
888.2	2.925
888.4	2.941
888.6	3.143
888.8	3.326
889.0	3.402
889.2	3.195
889.4	3.148
889.6	3.028
889.8	2.791
890.0	2.859
890.2	3.032
890.4	3.327
890.6	3.549
890.8	3.889
891.0	3.831
891.2	3.882
891.4	3.752
891.6	3.724
891.8	3.120
892.0	3.116
892.2	2.958
892.4	2.925
892.6	2.876
892.8	2.866
893.0	2.671
893.2	2.942
893.4	3.129
893.6	3.281
893.8	3.275
894.0	3.050
894.2	3.143
894.4	3.083
894.6	3.240
894.8	3.387
895.0	3.240
895.2	2.859
895.4	2.879
895.6	2.865
895.8	2.907
896.0	3.235
896.2	3.213
896.4	3.089
896.6	2.710
896.8	2.346
897.0	2.078
897.2	2.469
897.4	2.622
897.6	2.836
897.8	2.843
898.0	2.810
898.2	2.765
898.4	2.736
898.6	2.851
898.8	3.086
899.0	3.600
899.2	3.805
899.4	3.461
899.6	2.783
899.8	2.505
900.0	3.134

