Sample:	'20211010A(EM)
File name:	R-CDs 10 1000.FDS
Run date:	'16:53:53, 06/09/2023
Operator:	Administrator
Comment:	'

Instrument
Model:	F-4700 FL Spectrophotometer
Serial number:	2019-001
ROM Version:	5J24010 00

Instrument parameters
Measurement type:	Wavelength scan
Scan mode:	Emission
Data mode:	Fluorescence
EX WL:	520.0 nm
EM  Start WL:	540.0 nm
EM  End WL:	800.0 nm
Scan speed:	1200 nm/min
Delay:	0.0 s
EX Slit:	10.0 nm
EM Slit:	10.0 nm
PMT Voltage:	604 V
Response:	0.002 s
Corrected spectra:	Off
Shutter control:	On

Processing performed
Savitsky-Golay smoothed
Smoothing order:	3
Number of points:	7
Number of times:	1

Peak integration
Integration method:	Rectangular
Sensitivity:	1
Threshold:	1.000

Peaks
No.	Start(nm)	Apex(nm)	End(nm)	Height(Data)	Valley(nm)	Valley(Data)
1	540.0	606.8	608.0	1950	608.0	1937
2	608.0	609.4	610.2	1977	610.2	1945
3	610.2	611.2	611.8	1967	611.8	1953
4	611.8	613.0	614.4	1965	614.4	1953
5	614.4	615.2	617.8	1975	617.8	1910
6	617.8	618.6	699.4	1961	699.4	369.2
7	699.4	700.0	747.8	377.7	747.8	83.68
8	747.8	748.8	754.2	86.63	754.2	66.55
9	754.2	755.6	765.6	69.33	765.6	47.12
10	765.6	766.2	769.8	50.01	769.8	41.24
11	769.8	770.4	774.6	43.94	774.6	35.68
12	774.6	775.2	776.2	37.57	776.2	34.16
13	776.2	777.0	778.8	37.10	778.8	31.81
14	778.8	779.6	782.2	33.42	782.2	27.59
15	782.2	783.8	787.0	31.54	787.0	26.51
16	787.0	787.8	788.4	28.47	788.4	26.05
17	788.4	789.0	792.4	28.50	792.4	23.36
18	792.4	793.2	793.8	25.76	793.8	23.62
19	793.8	794.6	796.6	25.63	796.6	21.73

Data points
nm	Data
540.0	186.8
540.2	194.0
540.4	196.0
540.6	195.3
540.8	194.7
541.0	196.4
541.2	196.4
541.4	199.8
541.6	201.1
541.8	202.2
542.0	205.9
542.2	210.6
542.4	212.0
542.6	212.3
542.8	212.0
543.0	214.6
543.2	215.3
543.4	216.9
543.6	216.5
543.8	215.0
544.0	217.8
544.2	224.7
544.4	229.3
544.6	235.1
544.8	237.0
545.0	240.0
545.2	238.9
545.4	240.7
545.6	242.3
545.8	246.0
546.0	246.1
546.2	245.6
546.4	246.5
546.6	248.5
546.8	251.2
547.0	254.9
547.2	257.9
547.4	258.5
547.6	263.6
547.8	267.9
548.0	270.3
548.2	270.4
548.4	269.9
548.6	268.9
548.8	269.0
549.0	274.7
549.2	279.1
549.4	282.5
549.6	284.1
549.8	284.8
550.0	285.6
550.2	288.4
550.4	292.8
550.6	297.3
550.8	300.4
551.0	305.1
551.2	308.5
551.4	307.8
551.6	309.6
551.8	309.6
552.0	309.5
552.2	314.3
552.4	320.1
552.6	326.6
552.8	328.8
553.0	333.3
553.2	331.7
553.4	333.8
553.6	337.2
553.8	342.0
554.0	343.9
554.2	351.8
554.4	354.1
554.6	356.3
554.8	356.1
555.0	359.3
555.2	361.1
555.4	366.0
555.6	372.5
555.8	376.2
556.0	381.2
556.2	389.8
556.4	393.2
556.6	395.6
556.8	395.9
557.0	398.3
557.2	402.1
557.4	407.0
557.6	410.9
557.8	413.6
558.0	413.3
558.2	419.2
558.4	423.0
558.6	431.1
558.8	441.0
559.0	450.4
559.2	455.6
559.4	460.8
559.6	463.5
559.8	466.9
560.0	473.9
560.2	478.8
560.4	483.5
560.6	486.7
560.8	492.0
561.0	493.2
561.2	498.8
561.4	499.8
561.6	505.2
561.8	510.9
562.0	522.5
562.2	530.8
562.4	538.8
562.6	543.5
562.8	546.6
563.0	553.0
563.2	560.9
563.4	567.4
563.6	572.4
563.8	582.3
564.0	587.9
564.2	595.4
564.4	602.5
564.6	610.4
564.8	618.6
565.0	628.2
565.2	634.7
565.4	637.8
565.6	644.1
565.8	651.3
566.0	656.3
566.2	657.5
566.4	661.4
566.6	666.4
566.8	678.5
567.0	689.4
567.2	696.9
567.4	702.2
567.6	709.8
567.8	720.4
568.0	733.2
568.2	740.9
568.4	747.8
568.6	756.8
568.8	767.5
569.0	775.6
569.2	784.8
569.4	786.9
569.6	790.6
569.8	799.7
570.0	810.6
570.2	817.4
570.4	830.3
570.6	832.9
570.8	841.5
571.0	850.1
571.2	863.3
571.4	871.4
571.6	876.9
571.8	883.3
572.0	898.8
572.2	911.1
572.4	923.2
572.6	930.7
572.8	930.8
573.0	936.5
573.2	947.6
573.4	960.7
573.6	971.6
573.8	985.2
574.0	995.7
574.2	1002
574.4	1006
574.6	1013
574.8	1027
575.0	1038
575.2	1048
575.4	1059
575.6	1066
575.8	1072
576.0	1083
576.2	1087
576.4	1093
576.6	1105
576.8	1119
577.0	1128
577.2	1139
577.4	1147
577.6	1154
577.8	1160
578.0	1168
578.2	1177
578.4	1184
578.6	1190
578.8	1194
579.0	1199
579.2	1211
579.4	1223
579.6	1234
579.8	1249
580.0	1261
580.2	1269
580.4	1273
580.6	1276
580.8	1288
581.0	1304
581.2	1317
581.4	1328
581.6	1332
581.8	1341
582.0	1351
582.2	1352
582.4	1359
582.6	1366
582.8	1376
583.0	1385
583.2	1389
583.4	1393
583.6	1403
583.8	1412
584.0	1426
584.2	1435
584.4	1439
584.6	1442
584.8	1442
585.0	1448
585.2	1457
585.4	1477
585.6	1487
585.8	1496
586.0	1497
586.2	1503
586.4	1507
586.6	1521
586.8	1528
587.0	1535
587.2	1545
587.4	1555
587.6	1559
587.8	1568
588.0	1568
588.2	1570
588.4	1578
588.6	1580
588.8	1586
589.0	1594
589.2	1598
589.4	1607
589.6	1618
589.8	1624
590.0	1633
590.2	1632
590.4	1635
590.6	1643
590.8	1649
591.0	1654
591.2	1663
591.4	1665
591.6	1674
591.8	1683
592.0	1685
592.2	1692
592.4	1703
592.6	1709
592.8	1715
593.0	1718
593.2	1718
593.4	1718
593.6	1721
593.8	1729
594.0	1739
594.2	1744
594.4	1746
594.6	1748
594.8	1751
595.0	1760
595.2	1766
595.4	1770
595.6	1779
595.8	1783
596.0	1781
596.2	1784
596.4	1787
596.6	1790
596.8	1803
597.0	1808
597.2	1810
597.4	1812
597.6	1813
597.8	1814
598.0	1821
598.2	1830
598.4	1837
598.6	1848
598.8	1853
599.0	1856
599.2	1853
599.4	1854
599.6	1859
599.8	1861
600.0	1863
600.2	1864
600.4	1863
600.6	1870
600.8	1876
601.0	1868
601.2	1869
601.4	1874
601.6	1879
601.8	1890
602.0	1900
602.2	1899
602.4	1902
602.6	1905
602.8	1901
603.0	1906
603.2	1912
603.4	1908
603.6	1915
603.8	1917
604.0	1918
604.2	1923
604.4	1927
604.6	1924
604.8	1924
605.0	1927
605.2	1930
605.4	1927
605.6	1929
605.8	1926
606.0	1924
606.2	1928
606.4	1932
606.6	1942
606.8	1950
607.0	1947
607.2	1946
607.4	1940
607.6	1939
607.8	1941
608.0	1937
608.2	1937
608.4	1943
608.6	1944
608.8	1956
609.0	1962
609.2	1967
609.4	1977
609.6	1975
609.8	1959
610.0	1952
610.2	1945
610.4	1947
610.6	1953
610.8	1963
611.0	1965
611.2	1967
611.4	1964
611.6	1960
611.8	1953
612.0	1954
612.2	1957
612.4	1957
612.6	1959
612.8	1963
613.0	1965
613.2	1962
613.4	1964
613.6	1957
613.8	1959
614.0	1961
614.2	1958
614.4	1953
614.6	1957
614.8	1955
615.0	1970
615.2	1975
615.4	1970
615.6	1968
615.8	1961
616.0	1947
616.2	1952
616.4	1954
616.6	1951
616.8	1965
617.0	1961
617.2	1949
617.4	1939
617.6	1923
617.8	1910
618.0	1921
618.2	1937
618.4	1954
618.6	1961
618.8	1958
619.0	1950
619.2	1938
619.4	1939
619.6	1935
619.8	1932
620.0	1934
620.2	1934
620.4	1922
620.6	1929
620.8	1921
621.0	1924
621.2	1926
621.4	1924
621.6	1911
621.8	1912
622.0	1907
622.2	1908
622.4	1910
622.6	1919
622.8	1910
623.0	1908
623.2	1902
623.4	1891
623.6	1884
623.8	1890
624.0	1889
624.2	1892
624.4	1889
624.6	1881
624.8	1879
625.0	1875
625.2	1870
625.4	1869
625.6	1863
625.8	1858
626.0	1868
626.2	1864
626.4	1857
626.6	1854
626.8	1853
627.0	1850
627.2	1856
627.4	1849
627.6	1839
627.8	1831
628.0	1834
628.2	1833
628.4	1837
628.6	1835
628.8	1825
629.0	1810
629.2	1802
629.4	1797
629.6	1799
629.8	1803
630.0	1798
630.2	1794
630.4	1785
630.6	1777
630.8	1774
631.0	1774
631.2	1769
631.4	1769
631.6	1766
631.8	1762
632.0	1757
632.2	1762
632.4	1756
632.6	1751
632.8	1753
633.0	1748
633.2	1745
633.4	1747
633.6	1739
633.8	1725
634.0	1712
634.2	1694
634.4	1693
634.6	1697
634.8	1697
635.0	1693
635.2	1687
635.4	1675
635.6	1671
635.8	1672
636.0	1672
636.2	1671
636.4	1672
636.6	1662
636.8	1654
637.0	1649
637.2	1647
637.4	1647
637.6	1647
637.8	1638
638.0	1634
638.2	1624
638.4	1615
638.6	1609
638.8	1603
639.0	1598
639.2	1600
639.4	1600
639.6	1598
639.8	1593
640.0	1588
640.2	1579
640.4	1571
640.6	1566
640.8	1560
641.0	1558
641.2	1558
641.4	1558
641.6	1549
641.8	1544
642.0	1542
642.2	1532
642.4	1527
642.6	1524
642.8	1513
643.0	1502
643.2	1496
643.4	1496
643.6	1500
643.8	1501
644.0	1485
644.2	1465
644.4	1452
644.6	1457
644.8	1460
645.0	1457
645.2	1446
645.4	1440
645.6	1437
645.8	1436
646.0	1424
646.2	1415
646.4	1405
646.6	1403
646.8	1403
647.0	1395
647.2	1383
647.4	1381
647.6	1372
647.8	1373
648.0	1376
648.2	1377
648.4	1376
648.6	1372
648.8	1358
649.0	1345
649.2	1337
649.4	1335
649.6	1333
649.8	1327
650.0	1318
650.2	1307
650.4	1304
650.6	1303
650.8	1302
651.0	1296
651.2	1289
651.4	1278
651.6	1276
651.8	1271
652.0	1266
652.2	1262
652.4	1262
652.6	1256
652.8	1251
653.0	1245
653.2	1241
653.4	1238
653.6	1240
653.8	1229
654.0	1215
654.2	1205
654.4	1202
654.6	1192
654.8	1186
655.0	1182
655.2	1179
655.4	1181
655.6	1183
655.8	1169
656.0	1156
656.2	1154
656.4	1151
656.6	1152
656.8	1151
657.0	1147
657.2	1141
657.4	1137
657.6	1128
657.8	1118
658.0	1109
658.2	1102
658.4	1097
658.6	1089
658.8	1084
659.0	1082
659.2	1081
659.4	1081
659.6	1072
659.8	1067
660.0	1059
660.2	1052
660.4	1050
660.6	1047
660.8	1034
661.0	1033
661.2	1027
661.4	1020
661.6	1020
661.8	1013
662.0	1005
662.2	999.6
662.4	994.7
662.6	994.4
662.8	996.1
663.0	991.1
663.2	987.7
663.4	980.3
663.6	976.4
663.8	972.3
664.0	969.0
664.2	959.3
664.4	954.3
664.6	952.3
664.8	951.0
665.0	944.4
665.2	936.2
665.4	930.1
665.6	929.0
665.8	931.8
666.0	924.6
666.2	914.4
666.4	902.6
666.6	894.4
666.8	896.7
667.0	895.8
667.2	894.8
667.4	892.3
667.6	889.9
667.8	879.3
668.0	875.4
668.2	864.3
668.4	862.9
668.6	861.5
668.8	856.9
669.0	851.0
669.2	847.9
669.4	841.1
669.6	838.5
669.8	838.7
670.0	832.9
670.2	830.4
670.4	824.9
670.6	816.3
670.8	808.9
671.0	804.4
671.2	797.9
671.4	793.8
671.6	792.9
671.8	794.2
672.0	793.1
672.2	793.8
672.4	785.5
672.6	773.8
672.8	766.9
673.0	762.4
673.2	758.9
673.4	759.2
673.6	753.7
673.8	747.0
674.0	741.6
674.2	736.8
674.4	732.3
674.6	731.5
674.8	729.5
675.0	724.1
675.2	719.5
675.4	714.0
675.6	711.2
675.8	709.0
676.0	707.8
676.2	701.3
676.4	697.0
676.6	692.1
676.8	689.4
677.0	686.1
677.2	686.1
677.4	681.5
677.6	676.9
677.8	671.6
678.0	669.1
678.2	665.5
678.4	663.4
678.6	659.8
678.8	658.9
679.0	654.4
679.2	657.7
679.4	652.2
679.6	643.0
679.8	636.7
680.0	635.6
680.2	630.6
680.4	629.7
680.6	626.8
680.8	622.0
681.0	619.5
681.2	615.9
681.4	606.3
681.6	600.7
681.8	599.6
682.0	602.9
682.2	600.2
682.4	596.2
682.6	590.8
682.8	589.2
683.0	583.2
683.2	581.6
683.4	579.1
683.6	576.3
683.8	575.1
684.0	576.4
684.2	569.3
684.4	563.0
684.6	558.0
684.8	552.3
685.0	547.3
685.2	549.0
685.4	546.8
685.6	540.9
685.8	535.7
686.0	536.0
686.2	537.3
686.4	533.5
686.6	531.8
686.8	521.3
687.0	515.0
687.2	511.6
687.4	510.2
687.6	509.6
687.8	509.2
688.0	504.8
688.2	502.2
688.4	499.2
688.6	495.5
688.8	497.6
689.0	494.5
689.2	492.6
689.4	487.8
689.6	484.0
689.8	478.3
690.0	476.8
690.2	478.7
690.4	479.8
690.6	477.0
690.8	474.4
691.0	470.0
691.2	467.4
691.4	465.9
691.6	463.2
691.8	461.5
692.0	456.8
692.2	453.8
692.4	449.6
692.6	444.5
692.8	445.1
693.0	446.9
693.2	444.9
693.4	442.4
693.6	437.2
693.8	431.7
694.0	430.3
694.2	429.3
694.4	426.8
694.6	425.5
694.8	422.7
695.0	420.1
695.2	415.7
695.4	414.5
695.6	407.3
695.8	408.8
696.0	409.5
696.2	409.7
696.4	403.6
696.6	401.2
696.8	395.5
697.0	397.2
697.2	396.3
697.4	394.9
697.6	392.5
697.8	390.6
698.0	386.5
698.2	384.7
698.4	381.0
698.6	376.2
698.8	376.9
699.0	373.4
699.2	369.4
699.4	369.2
699.6	373.2
699.8	377.2
700.0	377.7
700.2	374.2
700.4	368.9
700.6	363.9
700.8	361.8
701.0	363.5
701.2	360.6
701.4	359.2
701.6	358.1
701.8	357.4
702.0	355.0
702.2	355.3
702.4	354.4
702.6	349.5
702.8	346.7
703.0	341.9
703.2	338.9
703.4	338.2
703.6	338.5
703.8	337.7
704.0	340.5
704.2	337.3
704.4	338.3
704.6	331.8
704.8	327.1
705.0	323.2
705.2	321.3
705.4	320.7
705.6	322.2
705.8	319.9
706.0	321.8
706.2	319.1
706.4	319.6
706.6	322.3
706.8	319.0
707.0	316.2
707.2	314.8
707.4	309.6
707.6	307.9
707.8	307.6
708.0	303.2
708.2	298.8
708.4	296.1
708.6	298.1
708.8	298.5
709.0	299.3
709.2	295.6
709.4	290.5
709.6	288.1
709.8	287.5
710.0	285.8
710.2	285.9
710.4	285.9
710.6	282.8
710.8	280.2
711.0	275.7
711.2	272.2
711.4	272.5
711.6	272.9
711.8	270.5
712.0	269.5
712.2	269.9
712.4	268.1
712.6	267.2
712.8	264.6
713.0	262.8
713.2	264.1
713.4	265.9
713.6	264.7
713.8	261.5
714.0	257.7
714.2	252.9
714.4	251.2
714.6	249.2
714.8	248.6
715.0	247.2
715.2	248.5
715.4	247.7
715.6	248.4
715.8	244.2
716.0	240.5
716.2	235.7
716.4	235.7
716.6	236.1
716.8	235.6
717.0	235.2
717.2	230.7
717.4	227.2
717.6	226.9
717.8	227.1
718.0	223.8
718.2	226.1
718.4	224.6
718.6	224.6
718.8	224.0
719.0	221.0
719.2	218.1
719.4	217.5
719.6	217.4
719.8	217.2
720.0	217.2
720.2	214.1
720.4	210.1
720.6	204.9
720.8	201.7
721.0	200.3
721.2	202.3
721.4	204.4
721.6	203.7
721.8	202.0
722.0	198.5
722.2	192.5
722.4	189.9
722.6	191.7
722.8	193.1
723.0	193.2
723.2	190.3
723.4	186.6
723.6	185.3
723.8	188.8
724.0	190.9
724.2	188.1
724.4	182.5
724.6	181.3
724.8	181.1
725.0	183.9
725.2	184.7
725.4	181.5
725.6	177.4
725.8	176.0
726.0	174.4
726.2	174.2
726.4	172.0
726.6	168.7
726.8	167.1
727.0	167.4
727.2	166.6
727.4	166.8
727.6	165.9
727.8	163.9
728.0	161.5
728.2	161.3
728.4	158.9
728.6	156.9
728.8	156.4
729.0	158.1
729.2	158.1
729.4	157.8
729.6	157.6
729.8	155.6
730.0	154.1
730.2	153.5
730.4	152.5
730.6	150.1
730.8	148.9
731.0	147.5
731.2	145.1
731.4	144.5
731.6	144.6
731.8	142.6
732.0	141.6
732.2	142.6
732.4	142.8
732.6	144.3
732.8	140.2
733.0	134.1
733.2	133.1
733.4	134.5
733.6	134.0
733.8	134.4
734.0	133.8
734.2	131.6
734.4	131.7
734.6	132.9
734.8	131.9
735.0	130.5
735.2	131.5
735.4	129.0
735.6	127.6
735.8	127.7
736.0	127.5
736.2	124.4
736.4	123.1
736.6	120.6
736.8	119.9
737.0	120.9
737.2	122.4
737.4	121.5
737.6	121.9
737.8	118.6
738.0	116.4
738.2	115.6
738.4	115.3
738.6	114.8
738.8	113.9
739.0	111.5
739.2	110.8
739.4	109.8
739.6	108.8
739.8	111.4
740.0	110.9
740.2	112.1
740.4	110.8
740.6	109.2
740.8	106.9
741.0	107.8
741.2	106.9
741.4	106.0
741.6	104.4
741.8	105.1
742.0	103.0
742.2	103.7
742.4	103.4
742.6	102.2
742.8	102.6
743.0	101.5
743.2	98.54
743.4	98.31
743.6	97.51
743.8	98.19
744.0	98.47
744.2	97.58
744.4	97.83
744.6	97.61
744.8	97.23
745.0	96.22
745.2	95.24
745.4	94.59
745.6	91.92
745.8	88.72
746.0	88.15
746.2	88.55
746.4	90.51
746.6	91.48
746.8	89.84
747.0	86.84
747.2	85.78
747.4	84.29
747.6	84.02
747.8	83.68
748.0	84.11
748.2	84.60
748.4	85.93
748.6	86.26
748.8	86.63
749.0	84.45
749.2	83.24
749.4	80.82
749.6	79.04
749.8	78.60
750.0	78.07
750.2	77.75
750.4	79.84
750.6	78.45
750.8	78.44
751.0	78.03
751.2	77.14
751.4	76.09
751.6	74.63
751.8	73.07
752.0	74.02
752.2	74.40
752.4	75.91
752.6	74.92
752.8	73.24
753.0	72.19
753.2	72.41
753.4	72.84
753.6	73.29
753.8	70.72
754.0	69.18
754.2	66.55
754.4	67.59
754.6	68.22
754.8	68.70
755.0	67.93
755.2	68.12
755.4	67.32
755.6	69.33
755.8	69.18
756.0	68.33
756.2	65.42
756.4	63.97
756.6	62.96
756.8	63.55
757.0	65.57
757.2	66.37
757.4	65.14
757.6	65.03
757.8	63.63
758.0	62.22
758.2	61.19
758.4	58.95
758.6	58.97
758.8	60.04
759.0	60.55
759.2	60.75
759.4	60.47
759.6	59.46
759.8	60.30
760.0	59.06
760.2	58.46
760.4	57.23
760.6	57.36
760.8	56.64
761.0	57.83
761.2	56.85
761.4	56.60
761.6	56.29
761.8	54.89
762.0	53.79
762.2	54.25
762.4	53.20
762.6	53.68
762.8	54.47
763.0	54.28
763.2	53.46
763.4	52.60
763.6	51.24
763.8	51.81
764.0	51.81
764.2	52.30
764.4	51.02
764.6	50.14
764.8	49.72
765.0	49.93
765.2	48.35
765.4	47.40
765.6	47.12
765.8	47.87
766.0	49.83
766.2	50.01
766.4	48.57
766.6	48.17
766.8	47.51
767.0	48.35
767.2	49.28
767.4	48.20
767.6	47.38
767.8	47.49
768.0	46.61
768.2	46.31
768.4	45.77
768.6	44.13
768.8	44.04
769.0	44.60
769.2	43.36
769.4	42.18
769.6	41.42
769.8	41.24
770.0	42.20
770.2	43.74
770.4	43.94
770.6	43.46
770.8	42.73
771.0	42.52
771.2	41.30
771.4	40.65
771.6	40.64
771.8	39.76
772.0	39.07
772.2	40.05
772.4	40.66
772.6	40.16
772.8	39.76
773.0	38.99
773.2	38.57
773.4	39.30
773.6	39.83
773.8	38.64
774.0	37.00
774.2	35.84
774.4	36.05
774.6	35.68
774.8	36.69
775.0	37.17
775.2	37.57
775.4	36.98
775.6	37.11
775.8	36.39
776.0	35.31
776.2	34.16
776.4	35.12
776.6	35.39
776.8	36.58
777.0	37.10
777.2	36.40
777.4	34.38
777.6	33.30
777.8	32.71
778.0	33.07
778.2	32.89
778.4	33.18
778.6	31.90
778.8	31.81
779.0	32.11
779.2	32.57
779.4	33.35
779.6	33.42
779.8	32.19
780.0	32.39
780.2	31.98
780.4	31.90
780.6	32.60
780.8	32.52
781.0	31.68
781.2	32.23
781.4	31.86
781.6	31.27
781.8	30.24
782.0	28.55
782.2	27.59
782.4	28.60
782.6	29.80
782.8	30.38
783.0	30.56
783.2	29.91
783.4	30.61
783.6	30.74
783.8	31.54
784.0	30.56
784.2	30.01
784.4	29.63
784.6	29.38
784.8	29.08
785.0	29.26
785.2	29.00
785.4	28.59
785.6	28.38
785.8	27.78
786.0	28.08
786.2	27.87
786.4	27.96
786.6	27.43
786.8	26.64
787.0	26.51
787.2	27.28
787.4	27.83
787.6	28.30
787.8	28.47
788.0	27.24
788.2	26.80
788.4	26.05
788.6	26.79
788.8	27.67
789.0	28.50
789.2	27.73
789.4	27.50
789.6	26.88
789.8	27.04
790.0	27.46
790.2	28.37
790.4	27.38
790.6	27.21
790.8	27.42
791.0	26.58
791.2	26.13
791.4	26.28
791.6	25.58
791.8	25.74
792.0	25.89
792.2	24.73
792.4	23.36
792.6	23.40
792.8	24.08
793.0	25.10
793.2	25.76
793.4	25.32
793.6	24.22
793.8	23.62
794.0	23.67
794.2	24.82
794.4	25.40
794.6	25.63
794.8	24.73
795.0	23.83
795.2	23.32
795.4	23.52
795.6	23.18
795.8	22.55
796.0	22.62
796.2	22.08
796.4	21.87
796.6	21.73
796.8	22.48
797.0	22.98
797.2	24.35
797.4	23.70
797.6	22.63
797.8	22.62
798.0	23.19
798.2	23.50
798.4	23.99
798.6	23.75
798.8	23.06
799.0	23.19
799.2	22.86
799.4	21.85
799.6	20.98
799.8	21.13
800.0	23.05

