Sample:	'20211010A(EM)
File name:	R-CDs 2 200.FDS
Run date:	'16:24:07, 06/09/2023
Operator:	Administrator
Comment:	'

Instrument
Model:	F-4700 FL Spectrophotometer
Serial number:	2019-001
ROM Version:	5J24010 00

Instrument parameters
Measurement type:	Wavelength scan
Scan mode:	Emission
Data mode:	Fluorescence
EX WL:	520.0 nm
EM  Start WL:	540.0 nm
EM  End WL:	800.0 nm
Scan speed:	1200 nm/min
Delay:	0.0 s
EX Slit:	10.0 nm
EM Slit:	10.0 nm
PMT Voltage:	615 V
Response:	0.002 s
Corrected spectra:	Off
Shutter control:	On

Processing performed
Savitsky-Golay smoothed
Smoothing order:	3
Number of points:	7
Number of times:	1

Peak integration
Integration method:	Rectangular
Sensitivity:	1
Threshold:	1.000

Peaks
No.	Start(nm)	Apex(nm)	End(nm)	Height(Data)	Valley(nm)	Valley(Data)
1	540.0	599.4	600.0	2639	600.0	2616
2	600.0	608.8	701.6	2745	701.6	435.7
3	701.6	702.4	747.4	439.7	747.4	95.52
4	747.4	748.2	749.4	101.1	749.4	91.44
5	749.4	750.2	756.8	97.92	756.8	68.81
6	756.8	757.6	760.4	73.49	760.4	63.67
7	760.4	761.2	766.2	66.07	766.2	51.24
8	766.2	766.6	782.2	54.39	782.2	29.98
9	782.2	783.2	785.0	33.13	785.0	28.48
10	785.0	785.6	790.6	30.72	790.6	25.78
11	790.6	791.4	792.6	28.03	792.6	24.66
12	792.6	793.6	794.6	26.67	794.6	24.10
13	794.6	796.2	800.0	25.45	800.0	23.25

Data points
nm	Data
540.0	254.7
540.2	264.9
540.4	270.6
540.6	272.9
540.8	272.3
541.0	270.6
541.2	272.9
541.4	274.9
541.6	277.3
541.8	281.1
542.0	285.2
542.2	286.5
542.4	288.2
542.6	286.2
542.8	289.6
543.0	293.5
543.2	297.0
543.4	301.7
543.6	302.4
543.8	301.4
544.0	307.0
544.2	308.5
544.4	309.3
544.6	314.3
544.8	314.1
545.0	315.9
545.2	317.4
545.4	320.5
545.6	328.5
545.8	331.3
546.0	335.1
546.2	334.1
546.4	332.9
546.6	336.1
546.8	341.0
547.0	340.7
547.2	347.2
547.4	347.9
547.6	349.8
547.8	356.9
548.0	362.2
548.2	366.0
548.4	370.4
548.6	373.4
548.8	372.6
549.0	376.3
549.2	377.0
549.4	380.2
549.6	384.8
549.8	389.8
550.0	394.0
550.2	398.9
550.4	399.2
550.6	404.5
550.8	410.1
551.0	416.1
551.2	419.0
551.4	419.6
551.6	415.9
551.8	416.7
552.0	420.8
552.2	431.7
552.4	439.2
552.6	446.9
552.8	451.5
553.0	450.7
553.2	451.9
553.4	454.9
553.6	458.1
553.8	462.9
554.0	470.3
554.2	475.6
554.4	483.3
554.6	486.7
554.8	493.6
555.0	499.3
555.2	506.6
555.4	511.1
555.6	512.0
555.8	515.7
556.0	528.3
556.2	535.4
556.4	541.4
556.6	543.9
556.8	546.6
557.0	557.5
557.2	565.8
557.4	569.7
557.6	572.7
557.8	575.9
558.0	580.3
558.2	588.7
558.4	592.5
558.6	603.2
558.8	612.3
559.0	622.4
559.2	627.5
559.4	632.7
559.6	636.6
559.8	644.1
560.0	648.9
560.2	658.6
560.4	667.0
560.6	674.9
560.8	682.7
561.0	688.3
561.2	698.7
561.4	710.3
561.6	721.7
561.8	730.0
562.0	741.1
562.2	752.0
562.4	764.7
562.6	774.2
562.8	779.8
563.0	784.9
563.2	791.7
563.4	800.9
563.6	809.8
563.8	824.2
564.0	835.2
564.2	848.1
564.4	856.0
564.6	864.6
564.8	873.4
565.0	885.9
565.2	893.7
565.4	903.8
565.6	912.1
565.8	923.9
566.0	937.1
566.2	945.7
566.4	953.5
566.6	971.2
566.8	987.1
567.0	1005
567.2	1021
567.4	1035
567.6	1041
567.8	1055
568.0	1063
568.2	1077
568.4	1084
568.6	1095
568.8	1098
569.0	1108
569.2	1124
569.4	1153
569.6	1170
569.8	1185
570.0	1193
570.2	1204
570.4	1218
570.6	1241
570.8	1248
571.0	1260
571.2	1267
571.4	1276
571.6	1290
571.8	1310
572.0	1315
572.2	1329
572.4	1337
572.6	1357
572.8	1378
573.0	1394
573.2	1407
573.4	1422
573.6	1432
573.8	1459
574.0	1471
574.2	1482
574.4	1492
574.6	1500
574.8	1511
575.0	1539
575.2	1555
575.4	1572
575.6	1585
575.8	1589
576.0	1595
576.2	1621
576.4	1637
576.6	1657
576.8	1671
577.0	1678
577.2	1693
577.4	1706
577.6	1718
577.8	1733
578.0	1744
578.2	1756
578.4	1768
578.6	1771
578.8	1780
579.0	1787
579.2	1811
579.4	1830
579.6	1848
579.8	1870
580.0	1886
580.2	1891
580.4	1898
580.6	1902
580.8	1918
581.0	1938
581.2	1945
581.4	1952
581.6	1954
581.8	1963
582.0	1982
582.2	1998
582.4	2008
582.6	2022
582.8	2033
583.0	2042
583.2	2053
583.4	2074
583.6	2084
583.8	2097
584.0	2102
584.2	2103
584.4	2113
584.6	2134
584.8	2143
585.0	2153
585.2	2158
585.4	2157
585.6	2167
585.8	2176
586.0	2189
586.2	2203
586.4	2218
586.6	2227
586.8	2235
587.0	2243
587.2	2251
587.4	2264
587.6	2275
587.8	2279
588.0	2281
588.2	2289
588.4	2298
588.6	2306
588.8	2312
589.0	2325
589.2	2341
589.4	2347
589.6	2358
589.8	2360
590.0	2355
590.2	2366
590.4	2380
590.6	2387
590.8	2399
591.0	2407
591.2	2409
591.4	2417
591.6	2419
591.8	2422
592.0	2428
592.2	2428
592.4	2433
592.6	2450
592.8	2459
593.0	2465
593.2	2472
593.4	2473
593.6	2476
593.8	2490
594.0	2517
594.2	2522
594.4	2527
594.6	2533
594.8	2534
595.0	2538
595.2	2550
595.4	2556
595.6	2556
595.8	2558
596.0	2559
596.2	2557
596.4	2559
596.6	2577
596.8	2588
597.0	2606
597.2	2610
597.4	2598
597.6	2585
597.8	2596
598.0	2602
598.2	2616
598.4	2628
598.6	2621
598.8	2618
599.0	2634
599.2	2634
599.4	2639
599.6	2633
599.8	2624
600.0	2616
600.2	2622
600.4	2628
600.6	2652
600.8	2655
601.0	2668
601.2	2671
601.4	2679
601.6	2680
601.8	2676
602.0	2678
602.2	2687
602.4	2689
602.6	2702
602.8	2707
603.0	2701
603.2	2711
603.4	2709
603.6	2706
603.8	2708
604.0	2715
604.2	2716
604.4	2715
604.6	2713
604.8	2713
605.0	2710
605.2	2724
605.4	2718
605.6	2720
605.8	2723
606.0	2723
606.2	2728
606.4	2730
606.6	2726
606.8	2726
607.0	2721
607.2	2721
607.4	2732
607.6	2736
607.8	2738
608.0	2733
608.2	2725
608.4	2725
608.6	2735
608.8	2745
609.0	2740
609.2	2734
609.4	2724
609.6	2726
609.8	2732
610.0	2741
610.2	2740
610.4	2732
610.6	2722
610.8	2728
611.0	2735
611.2	2734
611.4	2728
611.6	2719
611.8	2722
612.0	2734
612.2	2737
612.4	2729
612.6	2723
612.8	2713
613.0	2710
613.2	2716
613.4	2725
613.6	2728
613.8	2725
614.0	2709
614.2	2698
614.4	2708
614.6	2713
614.8	2718
615.0	2718
615.2	2716
615.4	2710
615.6	2707
615.8	2698
616.0	2700
616.2	2714
616.4	2720
616.6	2712
616.8	2693
617.0	2678
617.2	2675
617.4	2684
617.6	2686
617.8	2690
618.0	2680
618.2	2669
618.4	2666
618.6	2671
618.8	2673
619.0	2673
619.2	2669
619.4	2656
619.6	2654
619.8	2664
620.0	2668
620.2	2664
620.4	2649
620.6	2626
620.8	2613
621.0	2608
621.2	2608
621.4	2614
621.6	2613
621.8	2615
622.0	2616
622.2	2611
622.4	2603
622.6	2595
622.8	2586
623.0	2580
623.2	2572
623.4	2571
623.6	2568
623.8	2568
624.0	2565
624.2	2567
624.4	2562
624.6	2558
624.8	2549
625.0	2552
625.2	2551
625.4	2542
625.6	2529
625.8	2520
626.0	2506
626.2	2511
626.4	2505
626.6	2505
626.8	2510
627.0	2514
627.2	2503
627.4	2499
627.6	2478
627.8	2479
628.0	2474
628.2	2462
628.4	2449
628.6	2440
628.8	2444
629.0	2456
629.2	2455
629.4	2444
629.6	2430
629.8	2414
630.0	2407
630.2	2402
630.4	2402
630.6	2397
630.8	2402
631.0	2395
631.2	2380
631.4	2370
631.6	2361
631.8	2340
632.0	2349
632.2	2345
632.4	2349
632.6	2355
632.8	2347
633.0	2331
633.2	2325
633.4	2310
633.6	2300
633.8	2290
634.0	2287
634.2	2287
634.4	2287
634.6	2281
634.8	2272
635.0	2253
635.2	2250
635.4	2250
635.6	2250
635.8	2243
636.0	2237
636.2	2217
636.4	2213
636.6	2208
636.8	2198
637.0	2197
637.2	2186
637.4	2175
637.6	2174
637.8	2166
638.0	2159
638.2	2162
638.4	2149
638.6	2142
638.8	2133
639.0	2120
639.2	2113
639.4	2114
639.6	2114
639.8	2109
640.0	2103
640.2	2094
640.4	2084
640.6	2079
640.8	2065
641.0	2051
641.2	2050
641.4	2046
641.6	2036
641.8	2024
642.0	2011
642.2	2003
642.4	1999
642.6	1999
642.8	1998
643.0	1991
643.2	1979
643.4	1967
643.6	1953
643.8	1945
644.0	1945
644.2	1940
644.4	1919
644.6	1907
644.8	1893
645.0	1892
645.2	1895
645.4	1899
645.6	1884
645.8	1871
646.0	1859
646.2	1854
646.4	1850
646.6	1853
646.8	1846
647.0	1839
647.2	1834
647.4	1823
647.6	1814
647.8	1802
648.0	1794
648.2	1793
648.4	1794
648.6	1788
648.8	1781
649.0	1770
649.2	1756
649.4	1755
649.6	1747
649.8	1738
650.0	1727
650.2	1719
650.4	1712
650.6	1709
650.8	1703
651.0	1695
651.2	1688
651.4	1681
651.6	1682
651.8	1668
652.0	1659
652.2	1638
652.4	1631
652.6	1626
652.8	1623
653.0	1617
653.2	1617
653.4	1607
653.6	1601
653.8	1592
654.0	1575
654.2	1566
654.4	1558
654.6	1546
654.8	1537
655.0	1533
655.2	1532
655.4	1529
655.6	1528
655.8	1523
656.0	1516
656.2	1501
656.4	1491
656.6	1481
656.8	1477
657.0	1471
657.2	1469
657.4	1457
657.6	1451
657.8	1450
658.0	1441
658.2	1430
658.4	1423
658.6	1410
658.8	1404
659.0	1400
659.2	1396
659.4	1396
659.6	1393
659.8	1380
660.0	1371
660.2	1364
660.4	1362
660.6	1361
660.8	1358
661.0	1347
661.2	1333
661.4	1319
661.6	1312
661.8	1306
662.0	1305
662.2	1299
662.4	1285
662.6	1280
662.8	1278
663.0	1276
663.2	1278
663.4	1265
663.6	1258
663.8	1257
664.0	1248
664.2	1240
664.4	1234
664.6	1221
664.8	1213
665.0	1208
665.2	1200
665.4	1197
665.6	1197
665.8	1189
666.0	1180
666.2	1173
666.4	1163
666.6	1158
666.8	1159
667.0	1151
667.2	1155
667.4	1148
667.6	1142
667.8	1140
668.0	1134
668.2	1126
668.4	1118
668.6	1104
668.8	1099
669.0	1086
669.2	1077
669.4	1077
669.6	1075
669.8	1071
670.0	1070
670.2	1055
670.4	1052
670.6	1048
670.8	1044
671.0	1036
671.2	1029
671.4	1022
671.6	1026
671.8	1024
672.0	1022
672.2	1012
672.4	1003
672.6	993.9
672.8	990.4
673.0	988.4
673.2	985.8
673.4	979.8
673.6	972.1
673.8	961.6
674.0	953.4
674.2	952.4
674.4	948.5
674.6	941.7
674.8	937.1
675.0	931.2
675.2	927.2
675.4	920.0
675.6	918.9
675.8	913.1
676.0	908.1
676.2	903.3
676.4	895.8
676.6	887.2
676.8	884.1
677.0	877.4
677.2	871.0
677.4	865.8
677.6	864.3
677.8	862.6
678.0	858.3
678.2	851.2
678.4	839.4
678.6	829.6
678.8	832.5
679.0	831.7
679.2	835.5
679.4	833.9
679.6	817.7
679.8	806.7
680.0	804.2
680.2	796.1
680.4	796.4
680.6	795.2
680.8	790.4
681.0	788.7
681.2	789.6
681.4	781.7
681.6	778.4
681.8	770.8
682.0	764.5
682.2	760.4
682.4	756.5
682.6	753.1
682.8	752.0
683.0	742.3
683.2	739.5
683.4	735.2
683.6	729.2
683.8	726.1
684.0	723.7
684.2	713.6
684.4	713.6
684.6	708.9
684.8	708.6
685.0	706.1
685.2	700.1
685.4	693.4
685.6	685.8
685.8	677.6
686.0	677.1
686.2	676.1
686.4	675.5
686.6	677.7
686.8	668.8
687.0	662.8
687.2	658.5
687.4	657.5
687.6	656.0
687.8	652.8
688.0	643.0
688.2	633.7
688.4	626.0
688.6	623.0
688.8	624.4
689.0	624.6
689.2	620.7
689.4	614.0
689.6	612.6
689.8	608.0
690.0	607.6
690.2	605.2
690.4	594.9
690.6	589.3
690.8	587.8
691.0	588.1
691.2	586.7
691.4	580.1
691.6	569.0
691.8	564.3
692.0	565.6
692.2	570.7
692.4	571.7
692.6	564.1
692.8	562.0
693.0	557.7
693.2	554.5
693.4	549.9
693.6	547.9
693.8	545.2
694.0	544.8
694.2	541.7
694.4	537.6
694.6	532.3
694.8	525.9
695.0	524.4
695.2	522.7
695.4	523.7
695.6	526.6
695.8	522.3
696.0	513.2
696.2	507.0
696.4	504.2
696.6	504.2
696.8	502.9
697.0	501.3
697.2	502.5
697.4	499.4
697.6	494.2
697.8	489.7
698.0	483.4
698.2	479.3
698.4	480.5
698.6	483.0
698.8	484.5
699.0	478.0
699.2	476.6
699.4	472.1
699.6	469.1
699.8	470.9
700.0	470.3
700.2	465.9
700.4	467.5
700.6	465.2
700.8	459.0
701.0	450.8
701.2	443.3
701.4	436.8
701.6	435.7
701.8	436.7
702.0	437.2
702.2	435.7
702.4	439.7
702.6	439.2
702.8	437.3
703.0	436.9
703.2	431.7
703.4	425.1
703.6	421.6
703.8	422.9
704.0	423.0
704.2	420.9
704.4	417.9
704.6	416.1
704.8	410.9
705.0	409.1
705.2	406.0
705.4	400.8
705.6	399.0
705.8	398.6
706.0	395.7
706.2	390.7
706.4	388.2
706.6	388.2
706.8	386.5
707.0	386.0
707.2	383.2
707.4	379.0
707.6	377.9
707.8	377.4
708.0	379.5
708.2	380.6
708.4	377.1
708.6	373.7
708.8	367.9
709.0	359.9
709.2	357.8
709.4	357.1
709.6	359.1
709.8	359.7
710.0	357.2
710.2	353.9
710.4	352.2
710.6	349.4
710.8	350.2
711.0	346.0
711.2	348.2
711.4	345.6
711.6	343.7
711.8	336.0
712.0	329.0
712.2	325.1
712.4	329.3
712.6	327.1
712.8	327.3
713.0	323.4
713.2	318.1
713.4	318.7
713.6	319.8
713.8	318.4
714.0	312.4
714.2	308.5
714.4	304.4
714.6	304.1
714.8	305.4
715.0	303.9
715.2	301.3
715.4	301.6
715.6	301.0
715.8	300.1
716.0	301.0
716.2	296.6
716.4	295.2
716.6	293.7
716.8	291.2
717.0	288.6
717.2	284.9
717.4	276.6
717.6	274.4
717.8	274.5
718.0	275.4
718.2	274.6
718.4	275.2
718.6	273.6
718.8	273.0
719.0	270.8
719.2	267.8
719.4	263.6
719.6	264.2
719.8	262.3
720.0	260.5
720.2	259.1
720.4	256.3
720.6	253.1
720.8	248.7
721.0	247.2
721.2	247.5
721.4	249.6
721.6	249.1
721.8	246.4
722.0	243.8
722.2	239.5
722.4	235.2
722.6	236.6
722.8	235.9
723.0	237.3
723.2	238.7
723.4	234.3
723.6	230.4
723.8	232.7
724.0	230.9
724.2	229.5
724.4	228.0
724.6	224.6
724.8	221.7
725.0	221.0
725.2	219.7
725.4	215.1
725.6	211.5
725.8	207.9
726.0	204.8
726.2	201.8
726.4	203.8
726.6	203.8
726.8	203.1
727.0	202.4
727.2	200.0
727.4	196.7
727.6	196.4
727.8	198.6
728.0	199.1
728.2	197.4
728.4	194.0
728.6	190.8
728.8	187.0
729.0	187.7
729.2	185.7
729.4	184.2
729.6	181.1
729.8	179.1
730.0	178.2
730.2	181.5
730.4	180.4
730.6	179.3
730.8	177.5
731.0	173.1
731.2	171.6
731.4	170.7
731.6	167.2
731.8	166.1
732.0	165.8
732.2	166.9
732.4	167.5
732.6	166.8
732.8	164.2
733.0	166.4
733.2	164.2
733.4	164.6
733.6	163.4
733.8	160.0
734.0	157.7
734.2	158.4
734.4	155.5
734.6	156.3
734.8	154.7
735.0	151.8
735.2	151.6
735.4	149.4
735.6	148.0
735.8	147.9
736.0	145.9
736.2	145.7
736.4	145.1
736.6	142.7
736.8	142.2
737.0	140.9
737.2	141.9
737.4	144.1
737.6	145.2
737.8	143.8
738.0	139.9
738.2	136.7
738.4	136.6
738.6	136.1
738.8	136.1
739.0	136.7
739.2	133.8
739.4	130.8
739.6	130.2
739.8	129.7
740.0	129.6
740.2	131.3
740.4	130.9
740.6	125.8
740.8	123.8
741.0	123.6
741.2	124.2
741.4	125.4
741.6	125.0
741.8	122.2
742.0	121.7
742.2	121.6
742.4	120.3
742.6	118.6
742.8	116.6
743.0	116.0
743.2	115.4
743.4	116.5
743.6	114.2
743.8	113.8
744.0	113.2
744.2	112.8
744.4	111.6
744.6	111.4
744.8	109.5
745.0	107.5
745.2	105.3
745.4	103.8
745.6	103.1
745.8	104.5
746.0	106.6
746.2	105.4
746.4	104.3
746.6	102.7
746.8	101.7
747.0	100.8
747.2	99.09
747.4	95.52
747.6	96.42
747.8	97.20
748.0	100.3
748.2	101.1
748.4	100.5
748.6	98.28
748.8	97.33
749.0	95.74
749.2	93.43
749.4	91.44
749.6	93.12
749.8	95.27
750.0	96.33
750.2	97.92
750.4	95.00
750.6	94.61
750.8	92.85
751.0	90.77
751.2	89.31
751.4	88.03
751.6	86.94
751.8	88.29
752.0	86.06
752.2	84.37
752.4	84.01
752.6	83.70
752.8	84.79
753.0	84.34
753.2	83.19
753.4	81.11
753.6	79.32
753.8	79.28
754.0	80.15
754.2	78.67
754.4	78.34
754.6	76.09
754.8	74.89
755.0	74.48
755.2	75.32
755.4	75.48
755.6	77.07
755.8	76.64
756.0	75.96
756.2	73.70
756.4	71.86
756.6	69.42
756.8	68.81
757.0	69.83
757.2	70.50
757.4	72.55
757.6	73.49
757.8	71.78
758.0	69.90
758.2	68.81
758.4	67.99
758.6	68.65
758.8	68.40
759.0	66.94
759.2	66.23
759.4	66.08
759.6	66.22
759.8	66.15
760.0	65.80
760.2	64.40
760.4	63.67
760.6	63.89
760.8	64.63
761.0	64.99
761.2	66.07
761.4	65.10
761.6	63.92
761.8	62.91
762.0	60.76
762.2	58.90
762.4	59.14
762.6	58.75
762.8	59.11
763.0	58.70
763.2	57.24
763.4	58.34
763.6	58.54
763.8	58.09
764.0	57.67
764.2	56.54
764.4	56.02
764.6	57.88
764.8	57.21
765.0	54.98
765.2	52.45
765.4	52.00
765.6	51.39
765.8	51.97
766.0	51.72
766.2	51.24
766.4	51.55
766.6	54.39
766.8	54.20
767.0	53.10
767.2	51.59
767.4	50.66
767.6	49.84
767.8	49.21
768.0	48.78
768.2	49.41
768.4	49.20
768.6	49.61
768.8	48.67
769.0	48.39
769.2	48.52
769.4	48.19
769.6	46.89
769.8	46.32
770.0	45.35
770.2	46.11
770.4	44.95
770.6	45.49
770.8	45.10
771.0	45.52
771.2	44.98
771.4	44.09
771.6	42.40
771.8	42.04
772.0	41.07
772.2	42.01
772.4	42.82
772.6	43.39
772.8	43.16
773.0	41.89
773.2	42.47
773.4	42.64
773.6	42.53
773.8	43.13
774.0	42.48
774.2	40.98
774.4	40.74
774.6	41.58
774.8	41.16
775.0	41.07
775.2	40.57
775.4	40.09
775.6	38.95
775.8	39.19
776.0	39.58
776.2	38.71
776.4	38.83
776.6	39.27
776.8	38.53
777.0	37.74
777.2	37.52
777.4	36.03
777.6	36.32
777.8	36.86
778.0	37.96
778.2	38.67
778.4	37.38
778.6	35.35
778.8	34.42
779.0	34.44
779.2	35.41
779.4	35.81
779.6	35.96
779.8	35.02
780.0	35.35
780.2	35.17
780.4	35.40
780.6	35.05
780.8	34.63
781.0	33.99
781.2	35.18
781.4	33.79
781.6	33.01
781.8	31.73
782.0	30.74
782.2	29.98
782.4	30.07
782.6	30.96
782.8	32.67
783.0	32.58
783.2	33.13
783.4	32.06
783.6	31.21
783.8	31.51
784.0	32.67
784.2	31.33
784.4	30.78
784.6	29.37
784.8	29.26
785.0	28.48
785.2	29.38
785.4	30.04
785.6	30.72
785.8	29.99
786.0	30.62
786.2	29.97
786.4	29.09
786.6	29.29
786.8	29.33
787.0	28.56
787.2	28.28
787.4	28.10
787.6	28.09
787.8	28.54
788.0	28.75
788.2	28.51
788.4	28.04
788.6	27.81
788.8	28.60
789.0	27.87
789.2	27.47
789.4	27.96
789.6	28.34
789.8	28.24
790.0	28.26
790.2	26.93
790.4	25.82
790.6	25.78
790.8	26.36
791.0	27.41
791.2	28.03
791.4	28.03
791.6	27.72
791.8	27.69
792.0	26.92
792.2	26.64
792.4	25.82
792.6	24.66
792.8	24.81
793.0	25.83
793.2	26.11
793.4	26.32
793.6	26.67
793.8	25.61
794.0	24.94
794.2	24.86
794.4	24.41
794.6	24.10
794.8	24.88
795.0	24.30
795.2	24.10
795.4	24.41
795.6	24.32
795.8	24.60
796.0	25.34
796.2	25.45
796.4	24.91
796.6	24.66
796.8	24.20
797.0	23.87
797.2	23.78
797.4	24.14
797.6	24.01
797.8	24.19
798.0	23.68
798.2	22.82
798.4	22.11
798.6	22.33
798.8	22.77
799.0	23.73
799.2	23.39
799.4	22.49
799.6	21.62
799.8	21.63
800.0	23.25

