Sample:	'20211010A(EM)
File name:	R-CDs 3 300.FDS
Run date:	'16:27:11, 06/09/2023
Operator:	Administrator
Comment:	'

Instrument
Model:	F-4700 FL Spectrophotometer
Serial number:	2019-001
ROM Version:	5J24010 00

Instrument parameters
Measurement type:	Wavelength scan
Scan mode:	Emission
Data mode:	Fluorescence
EX WL:	520.0 nm
EM  Start WL:	540.0 nm
EM  End WL:	800.0 nm
Scan speed:	1200 nm/min
Delay:	0.0 s
EX Slit:	10.0 nm
EM Slit:	10.0 nm
PMT Voltage:	615 V
Response:	0.002 s
Corrected spectra:	Off
Shutter control:	On

Processing performed
Savitsky-Golay smoothed
Smoothing order:	3
Number of points:	7
Number of times:	1

Peak integration
Integration method:	Rectangular
Sensitivity:	1
Threshold:	1.000

Peaks
No.	Start(nm)	Apex(nm)	End(nm)	Height(Data)	Valley(nm)	Valley(Data)
1	540.0	607.8	608.8	1886	608.8	1871
2	608.8	610.2	612.0	1894	612.0	1871
3	612.0	613.4	614.2	1888	614.2	1856
4	614.2	615.4	620.6	1885	620.6	1802
5	620.6	621.4	623.8	1817	623.8	1770
6	623.8	624.6	748.0	1784	748.0	67.85
7	748.0	749.0	752.6	70.40	752.6	59.21
8	752.6	753.2	763.8	60.55	763.8	40.35
9	763.8	765.2	766.6	42.82	766.6	36.35
10	766.6	767.4	768.4	39.90	768.4	34.55
11	768.4	769.2	771.6	38.17	771.6	31.40
12	771.6	772.8	774.6	33.21	774.6	27.69
13	774.6	775.2	779.8	30.36	779.8	24.93
14	779.8	780.8	782.4	26.21	782.4	22.51
15	782.4	784.2	786.2	24.38	786.2	20.34
16	786.2	788.2	789.0	22.66	789.0	18.93
17	789.0	789.8	792.6	21.92	792.6	19.61
18	792.6	793.2	793.8	21.05	793.8	18.64
19	793.8	796.6	800.0	20.49	800.0	18.97

Data points
nm	Data
540.0	183.6
540.2	180.1
540.4	184.5
540.6	192.1
540.8	192.5
541.0	193.9
541.2	195.2
541.4	195.8
541.6	193.5
541.8	196.9
542.0	194.1
542.2	195.6
542.4	200.6
542.6	203.7
542.8	206.4
543.0	212.4
543.2	217.0
543.4	219.3
543.6	220.4
543.8	221.0
544.0	221.8
544.2	219.2
544.4	218.1
544.6	218.7
544.8	222.0
545.0	226.5
545.2	229.3
545.4	228.4
545.6	230.1
545.8	236.4
546.0	238.1
546.2	238.9
546.4	240.0
546.6	241.5
546.8	246.3
547.0	250.3
547.2	250.5
547.4	250.1
547.6	252.2
547.8	255.2
548.0	256.1
548.2	251.6
548.4	252.7
548.6	253.4
548.8	259.6
549.0	267.0
549.2	270.2
549.4	270.4
549.6	274.6
549.8	279.0
550.0	284.5
550.2	287.2
550.4	283.6
550.6	282.4
550.8	283.9
551.0	289.7
551.2	297.7
551.4	301.3
551.6	304.3
551.8	304.9
552.0	303.1
552.2	303.3
552.4	304.5
552.6	304.3
552.8	314.1
553.0	319.3
553.2	321.5
553.4	323.1
553.6	322.7
553.8	322.2
554.0	329.3
554.2	335.4
554.4	338.9
554.6	345.1
554.8	347.8
555.0	352.7
555.2	355.6
555.4	361.2
555.6	360.9
555.8	368.6
556.0	376.1
556.2	384.2
556.4	387.4
556.6	389.6
556.8	385.3
557.0	385.9
557.2	390.5
557.4	395.0
557.6	402.1
557.8	406.8
558.0	413.3
558.2	414.4
558.4	420.4
558.6	424.5
558.8	431.2
559.0	435.8
559.2	441.0
559.4	446.1
559.6	454.0
559.8	460.2
560.0	465.1
560.2	471.7
560.4	472.7
560.6	478.1
560.8	481.8
561.0	487.5
561.2	495.2
561.4	503.7
561.6	508.2
561.8	513.6
562.0	517.1
562.2	525.4
562.4	534.3
562.6	540.2
562.8	546.9
563.0	553.1
563.2	555.8
563.4	566.3
563.6	574.7
563.8	581.1
564.0	587.8
564.2	592.3
564.4	594.3
564.6	603.8
564.8	612.8
565.0	621.5
565.2	628.2
565.4	637.6
565.6	646.9
565.8	651.3
566.0	652.5
566.2	660.1
566.4	664.2
566.6	677.2
566.8	689.7
567.0	694.7
567.2	699.3
567.4	709.1
567.6	716.9
567.8	729.3
568.0	739.0
568.2	750.4
568.4	760.0
568.6	764.3
568.8	767.8
569.0	774.2
569.2	779.0
569.4	795.2
569.6	805.8
569.8	814.6
570.0	824.2
570.2	833.1
570.4	837.2
570.6	848.4
570.8	850.7
571.0	860.6
571.2	873.2
571.4	886.0
571.6	896.4
571.8	910.7
572.0	914.7
572.2	919.6
572.4	927.2
572.6	936.7
572.8	949.4
573.0	970.4
573.2	981.4
573.4	985.7
573.6	991.8
573.8	995.4
574.0	1006
574.2	1023
574.4	1042
574.6	1054
574.8	1062
575.0	1064
575.2	1075
575.4	1080
575.6	1091
575.8	1102
576.0	1114
576.2	1121
576.4	1132
576.6	1136
576.8	1142
577.0	1154
577.2	1169
577.4	1183
577.6	1193
577.8	1202
578.0	1207
578.2	1207
578.4	1210
578.6	1221
578.8	1234
579.0	1239
579.2	1246
579.4	1257
579.6	1266
579.8	1276
580.0	1286
580.2	1288
580.4	1292
580.6	1308
580.8	1321
581.0	1328
581.2	1339
581.4	1343
581.6	1345
581.8	1352
582.0	1361
582.2	1363
582.4	1374
582.6	1382
582.8	1391
583.0	1403
583.2	1415
583.4	1421
583.6	1419
583.8	1420
584.0	1428
584.2	1443
584.4	1459
584.6	1470
584.8	1469
585.0	1467
585.2	1476
585.4	1487
585.6	1497
585.8	1497
586.0	1496
586.2	1499
586.4	1507
586.6	1516
586.8	1526
587.0	1530
587.2	1539
587.4	1554
587.6	1564
587.8	1577
588.0	1575
588.2	1575
588.4	1586
588.6	1596
588.8	1598
589.0	1604
589.2	1605
589.4	1611
589.6	1618
589.8	1616
590.0	1609
590.2	1612
590.4	1629
590.6	1650
590.8	1657
591.0	1653
591.2	1644
591.4	1647
591.6	1648
591.8	1659
592.0	1667
592.2	1672
592.4	1679
592.6	1685
592.8	1684
593.0	1685
593.2	1685
593.4	1686
593.6	1696
593.8	1696
594.0	1706
594.2	1709
594.4	1714
594.6	1717
594.8	1727
595.0	1735
595.2	1742
595.4	1747
595.6	1752
595.8	1751
596.0	1754
596.2	1763
596.4	1764
596.6	1778
596.8	1778
597.0	1781
597.2	1783
597.4	1780
597.6	1779
597.8	1783
598.0	1781
598.2	1787
598.4	1800
598.6	1816
598.8	1826
599.0	1829
599.2	1823
599.4	1820
599.6	1820
599.8	1820
600.0	1823
600.2	1824
600.4	1824
600.6	1826
600.8	1831
601.0	1828
601.2	1835
601.4	1835
601.6	1835
601.8	1832
602.0	1839
602.2	1838
602.4	1845
602.6	1845
602.8	1841
603.0	1847
603.2	1851
603.4	1852
603.6	1852
603.8	1848
604.0	1847
604.2	1853
604.4	1852
604.6	1850
604.8	1848
605.0	1853
605.2	1864
605.4	1877
605.6	1875
605.8	1873
606.0	1873
606.2	1869
606.4	1872
606.6	1879
606.8	1872
607.0	1877
607.2	1881
607.4	1879
607.6	1878
607.8	1886
608.0	1883
608.2	1884
608.4	1874
608.6	1871
608.8	1871
609.0	1881
609.2	1876
609.4	1883
609.6	1878
609.8	1876
610.0	1885
610.2	1894
610.4	1886
610.6	1887
610.8	1878
611.0	1876
611.2	1885
611.4	1890
611.6	1889
611.8	1881
612.0	1871
612.2	1874
612.4	1878
612.6	1880
612.8	1887
613.0	1882
613.2	1884
613.4	1888
613.6	1882
613.8	1870
614.0	1861
614.2	1856
614.4	1857
614.6	1863
614.8	1871
615.0	1873
615.2	1874
615.4	1885
615.6	1880
615.8	1874
616.0	1873
616.2	1860
616.4	1857
616.6	1862
616.8	1858
617.0	1851
617.2	1852
617.4	1844
617.6	1841
617.8	1844
618.0	1844
618.2	1847
618.4	1855
618.6	1847
618.8	1835
619.0	1830
619.2	1831
619.4	1829
619.6	1831
619.8	1821
620.0	1814
620.2	1810
620.4	1809
620.6	1802
620.8	1804
621.0	1807
621.2	1815
621.4	1817
621.6	1815
621.8	1809
622.0	1805
622.2	1794
622.4	1796
622.6	1791
622.8	1792
623.0	1789
623.2	1790
623.4	1779
623.6	1774
623.8	1770
624.0	1770
624.2	1774
624.4	1779
624.6	1784
624.8	1780
625.0	1774
625.2	1759
625.4	1748
625.6	1737
625.8	1737
626.0	1743
626.2	1748
626.4	1752
626.6	1751
626.8	1736
627.0	1721
627.2	1719
627.4	1718
627.6	1721
627.8	1722
628.0	1714
628.2	1710
628.4	1713
628.6	1706
628.8	1695
629.0	1690
629.2	1690
629.4	1695
629.6	1701
629.8	1688
630.0	1674
630.2	1668
630.4	1662
630.6	1663
630.8	1665
631.0	1661
631.2	1656
631.4	1659
631.6	1655
631.8	1651
632.0	1650
632.2	1642
632.4	1627
632.6	1622
632.8	1614
633.0	1609
633.2	1612
633.4	1609
633.6	1607
633.8	1601
634.0	1591
634.2	1584
634.4	1582
634.6	1581
634.8	1586
635.0	1572
635.2	1564
635.4	1565
635.6	1569
635.8	1567
636.0	1562
636.2	1553
636.4	1543
636.6	1536
636.8	1526
637.0	1518
637.2	1514
637.4	1520
637.6	1519
637.8	1517
638.0	1504
638.2	1504
638.4	1504
638.6	1501
638.8	1496
639.0	1489
639.2	1469
639.4	1463
639.6	1459
639.8	1459
640.0	1463
640.2	1460
640.4	1451
640.6	1446
640.8	1440
641.0	1434
641.2	1433
641.4	1433
641.6	1424
641.8	1415
642.0	1406
642.2	1392
642.4	1393
642.6	1392
642.8	1389
643.0	1389
643.2	1389
643.4	1375
643.6	1364
643.8	1350
644.0	1341
644.2	1340
644.4	1347
644.6	1347
644.8	1346
645.0	1340
645.2	1330
645.4	1320
645.6	1317
645.8	1320
646.0	1313
646.2	1301
646.4	1293
646.6	1287
646.8	1285
647.0	1283
647.2	1277
647.4	1272
647.6	1268
647.8	1264
648.0	1261
648.2	1249
648.4	1240
648.6	1237
648.8	1228
649.0	1221
649.2	1220
649.4	1219
649.6	1218
649.8	1217
650.0	1209
650.2	1202
650.4	1200
650.6	1192
650.8	1189
651.0	1185
651.2	1181
651.4	1180
651.6	1171
651.8	1157
652.0	1150
652.2	1145
652.4	1140
652.6	1137
652.8	1131
653.0	1133
653.2	1134
653.4	1127
653.6	1118
653.8	1101
654.0	1091
654.2	1088
654.4	1083
654.6	1076
654.8	1078
655.0	1077
655.2	1080
655.4	1076
655.6	1067
655.8	1059
656.0	1050
656.2	1050
656.4	1046
656.6	1043
656.8	1039
657.0	1033
657.2	1020
657.4	1016
657.6	1010
657.8	1015
658.0	1011
658.2	1004
658.4	995.9
658.6	988.5
658.8	980.8
659.0	975.8
659.2	973.2
659.4	971.1
659.6	968.6
659.8	965.6
660.0	958.3
660.2	951.9
660.4	953.8
660.6	952.7
660.8	946.4
661.0	940.3
661.2	929.9
661.4	922.6
661.6	924.5
661.8	928.1
662.0	930.5
662.2	928.3
662.4	915.2
662.6	901.2
662.8	890.6
663.0	883.0
663.2	881.2
663.4	885.8
663.6	885.8
663.8	880.5
664.0	875.3
664.2	867.9
664.4	858.4
664.6	851.4
664.8	840.8
665.0	832.4
665.2	829.8
665.4	836.0
665.6	837.9
665.8	831.5
666.0	822.8
666.2	819.3
666.4	809.7
666.6	813.4
666.8	810.2
667.0	810.1
667.2	804.8
667.4	798.7
667.6	786.0
667.8	784.8
668.0	779.0
668.2	781.1
668.4	780.2
668.6	768.8
668.8	763.0
669.0	761.1
669.2	757.1
669.4	759.0
669.6	762.7
669.8	757.0
670.0	754.3
670.2	746.5
670.4	737.7
670.6	729.9
670.8	724.4
671.0	721.9
671.2	720.9
671.4	715.6
671.6	707.8
671.8	704.2
672.0	705.2
672.2	706.4
672.4	705.2
672.6	704.1
672.8	699.3
673.0	697.5
673.2	691.7
673.4	686.6
673.6	678.6
673.8	674.6
674.0	674.9
674.2	667.2
674.4	660.6
674.6	659.2
674.8	654.4
675.0	650.6
675.2	649.6
675.4	643.4
675.6	635.6
675.8	632.8
676.0	629.4
676.2	626.1
676.4	625.9
676.6	627.4
676.8	621.7
677.0	617.7
677.2	612.8
677.4	609.2
677.6	604.8
677.8	602.6
678.0	598.8
678.2	590.4
678.4	587.5
678.6	586.3
678.8	582.7
679.0	583.6
679.2	580.3
679.4	570.8
679.6	570.5
679.8	564.6
680.0	564.2
680.2	565.3
680.4	558.7
680.6	549.6
680.8	549.6
681.0	546.2
681.2	552.8
681.4	550.8
681.6	546.2
681.8	536.1
682.0	531.9
682.2	529.7
682.4	535.1
682.6	530.1
682.8	524.4
683.0	517.9
683.2	514.4
683.4	516.1
683.6	518.0
683.8	513.2
684.0	509.9
684.2	504.3
684.4	497.9
684.6	499.2
684.8	494.7
685.0	489.7
685.2	492.0
685.4	486.5
685.6	484.4
685.8	484.7
686.0	481.2
686.2	476.1
686.4	475.3
686.6	470.8
686.8	467.8
687.0	459.8
687.2	456.4
687.4	454.8
687.6	455.4
687.8	454.0
688.0	450.3
688.2	443.9
688.4	443.9
688.6	445.0
688.8	444.1
689.0	441.8
689.2	440.5
689.4	436.3
689.6	435.4
689.8	431.8
690.0	425.6
690.2	423.0
690.4	420.9
690.6	416.5
690.8	414.2
691.0	410.1
691.2	409.3
691.4	409.9
691.6	407.5
691.8	407.2
692.0	409.1
692.2	404.1
692.4	402.6
692.6	397.0
692.8	391.4
693.0	392.3
693.2	394.8
693.4	392.5
693.6	390.4
693.8	388.3
694.0	384.7
694.2	381.5
694.4	376.3
694.6	374.1
694.8	374.1
695.0	376.0
695.2	374.6
695.4	371.5
695.6	365.3
695.8	360.7
696.0	357.9
696.2	356.1
696.4	357.2
696.6	361.9
696.8	361.1
697.0	360.5
697.2	358.3
697.4	353.3
697.6	348.7
697.8	344.8
698.0	337.7
698.2	336.2
698.4	337.0
698.6	336.2
698.8	337.6
699.0	339.5
699.2	337.1
699.4	334.3
699.6	333.9
699.8	330.0
700.0	327.3
700.2	325.8
700.4	322.2
700.6	317.3
700.8	317.3
701.0	317.5
701.2	317.5
701.4	316.8
701.6	315.8
701.8	311.9
702.0	310.8
702.2	310.7
702.4	307.7
702.6	307.6
702.8	305.8
703.0	302.1
703.2	303.1
703.4	302.6
703.6	300.4
703.8	300.7
704.0	297.1
704.2	293.8
704.4	290.2
704.6	290.2
704.8	287.8
705.0	285.0
705.2	284.1
705.4	284.3
705.6	281.3
705.8	283.9
706.0	285.9
706.2	285.0
706.4	282.2
706.6	277.5
706.8	274.0
707.0	272.5
707.2	274.8
707.4	270.5
707.6	265.0
707.8	260.6
708.0	262.0
708.2	265.2
708.4	267.7
708.6	264.8
708.8	260.5
709.0	254.5
709.2	251.6
709.4	252.0
709.6	250.3
709.8	249.1
710.0	250.3
710.2	247.5
710.4	246.3
710.6	247.7
710.8	244.5
711.0	242.9
711.2	243.9
711.4	240.7
711.6	238.6
711.8	235.5
712.0	233.8
712.2	235.6
712.4	237.5
712.6	238.2
712.8	238.4
713.0	233.9
713.2	230.4
713.4	226.6
713.6	224.1
713.8	224.5
714.0	225.5
714.2	223.8
714.4	222.7
714.6	222.9
714.8	222.2
715.0	220.5
715.2	218.3
715.4	215.0
715.6	213.4
715.8	214.9
716.0	214.2
716.2	211.2
716.4	209.7
716.6	208.8
716.8	206.5
717.0	202.3
717.2	200.3
717.4	197.3
717.6	196.6
717.8	196.7
718.0	196.6
718.2	191.3
718.4	192.1
718.6	191.4
718.8	190.4
719.0	187.4
719.2	188.3
719.4	187.6
719.6	188.4
719.8	184.7
720.0	182.9
720.2	178.3
720.4	180.4
720.6	183.2
720.8	182.4
721.0	178.2
721.2	177.5
721.4	174.6
721.6	174.4
721.8	173.0
722.0	171.3
722.2	167.4
722.4	166.7
722.6	169.2
722.8	169.8
723.0	167.6
723.2	166.5
723.4	161.2
723.6	162.0
723.8	162.9
724.0	161.4
724.2	159.5
724.4	156.5
724.6	152.8
724.8	154.5
725.0	154.0
725.2	155.1
725.4	155.5
725.6	153.4
725.8	151.4
726.0	150.0
726.2	147.2
726.4	146.3
726.6	147.6
726.8	148.6
727.0	147.8
727.2	146.4
727.4	143.1
727.6	141.7
727.8	143.2
728.0	145.6
728.2	143.8
728.4	140.2
728.6	136.8
728.8	136.6
729.0	137.8
729.2	138.9
729.4	136.2
729.6	133.4
729.8	131.5
730.0	131.9
730.2	133.3
730.4	130.9
730.6	126.2
730.8	124.0
731.0	123.3
731.2	124.3
731.4	126.1
731.6	125.9
731.8	124.9
732.0	124.2
732.2	122.2
732.4	120.4
732.6	118.6
732.8	119.1
733.0	120.8
733.2	120.5
733.4	119.3
733.6	116.7
733.8	113.2
734.0	112.4
734.2	112.4
734.4	112.2
734.6	112.7
734.8	112.1
735.0	111.0
735.2	109.9
735.4	109.2
735.6	108.5
735.8	108.2
736.0	106.9
736.2	107.0
736.4	106.3
736.6	106.2
736.8	103.3
737.0	103.1
737.2	102.1
737.4	101.1
737.6	100.9
737.8	101.7
738.0	98.87
738.2	99.95
738.4	98.74
738.6	96.91
738.8	95.34
739.0	95.96
739.2	95.31
739.4	97.54
739.6	96.33
739.8	95.65
740.0	93.80
740.2	92.32
740.4	90.01
740.6	90.82
740.8	89.96
741.0	90.37
741.2	89.61
741.4	88.33
741.6	88.13
741.8	87.34
742.0	86.63
742.2	86.65
742.4	85.85
742.6	86.76
742.8	87.21
743.0	84.96
743.2	81.93
743.4	80.01
743.6	79.61
743.8	81.09
744.0	80.86
744.2	82.13
744.4	80.38
744.6	78.37
744.8	79.17
745.0	77.34
745.2	76.55
745.4	78.04
745.6	78.19
745.8	77.68
746.0	78.04
746.2	75.83
746.4	73.51
746.6	71.46
746.8	70.75
747.0	71.58
747.2	72.26
747.4	72.15
747.6	70.94
747.8	69.21
748.0	67.85
748.2	68.50
748.4	68.06
748.6	68.22
748.8	69.28
749.0	70.40
749.2	69.16
749.4	69.65
749.6	69.83
749.8	69.81
750.0	70.08
750.2	68.46
750.4	65.26
750.6	63.91
750.8	63.40
751.0	61.98
751.2	62.32
751.4	61.53
751.6	61.91
751.8	61.88
752.0	61.36
752.2	59.87
752.4	59.69
752.6	59.21
752.8	59.49
753.0	60.19
753.2	60.55
753.4	59.93
753.6	60.03
753.8	59.64
754.0	58.59
754.2	57.99
754.4	57.27
754.6	57.66
754.8	57.79
755.0	57.96
755.2	57.44
755.4	56.75
755.6	55.56
755.8	56.50
756.0	56.10
756.2	55.03
756.4	54.23
756.6	53.40
756.8	51.85
757.0	51.29
757.2	50.54
757.4	52.11
757.6	52.83
757.8	54.12
758.0	53.52
758.2	50.74
758.4	49.41
758.6	49.37
758.8	48.58
759.0	49.26
759.2	49.79
759.4	49.65
759.6	49.59
759.8	48.62
760.0	47.70
760.2	48.39
760.4	49.37
760.6	49.91
760.8	49.40
761.0	47.64
761.2	45.91
761.4	44.87
761.6	43.91
761.8	44.43
762.0	45.34
762.2	44.93
762.4	44.66
762.6	43.47
762.8	43.41
763.0	43.60
763.2	43.56
763.4	42.79
763.6	41.14
763.8	40.35
764.0	40.82
764.2	40.58
764.4	41.11
764.6	41.58
764.8	41.84
765.0	42.66
765.2	42.82
765.4	41.55
765.6	40.67
765.8	38.91
766.0	38.09
766.2	37.22
766.4	36.49
766.6	36.35
766.8	37.54
767.0	38.05
767.2	39.08
767.4	39.90
767.6	39.04
767.8	38.37
768.0	36.59
768.2	35.26
768.4	34.55
768.6	35.32
768.8	35.23
769.0	37.06
769.2	38.17
769.4	37.94
769.6	37.28
769.8	35.99
770.0	34.40
770.2	34.24
770.4	34.28
770.6	33.84
770.8	33.71
771.0	33.80
771.2	32.62
771.4	31.84
771.6	31.40
771.8	31.60
772.0	31.91
772.2	33.07
772.4	32.75
772.6	32.89
772.8	33.21
773.0	32.80
773.2	31.54
773.4	30.99
773.6	31.39
773.8	30.74
774.0	31.03
774.2	30.22
774.4	28.16
774.6	27.69
774.8	28.65
775.0	28.90
775.2	30.36
775.4	29.98
775.6	29.14
775.8	28.63
776.0	28.83
776.2	28.82
776.4	28.92
776.6	28.65
776.8	28.43
777.0	28.11
777.2	28.05
777.4	26.83
777.6	26.22
777.8	26.05
778.0	26.49
778.2	26.45
778.4	26.09
778.6	25.89
778.8	26.25
779.0	26.19
779.2	26.46
779.4	25.93
779.6	25.42
779.8	24.93
780.0	25.23
780.2	25.31
780.4	25.54
780.6	25.71
780.8	26.21
781.0	25.54
781.2	25.56
781.4	25.29
781.6	24.57
781.8	23.17
782.0	23.12
782.2	22.78
782.4	22.51
782.6	22.76
782.8	22.56
783.0	22.62
783.2	22.93
783.4	22.97
783.6	23.20
783.8	23.17
784.0	23.51
784.2	24.38
784.4	23.70
784.6	23.43
784.8	22.34
785.0	21.68
785.2	22.16
785.4	22.38
785.6	22.56
785.8	22.43
786.0	20.71
786.2	20.34
786.4	20.63
786.6	20.72
786.8	21.77
787.0	21.89
787.2	21.76
787.4	22.22
787.6	22.13
787.8	22.46
788.0	22.59
788.2	22.66
788.4	21.64
788.6	20.64
788.8	19.29
789.0	18.93
789.2	19.76
789.4	21.58
789.6	21.63
789.8	21.92
790.0	20.77
790.2	20.54
790.4	20.34
790.6	21.29
790.8	20.65
791.0	21.40
791.2	20.67
791.4	20.61
791.6	19.97
791.8	20.01
792.0	19.87
792.2	20.39
792.4	20.09
792.6	19.61
792.8	20.49
793.0	20.73
793.2	21.05
793.4	20.53
793.6	19.12
793.8	18.64
794.0	19.14
794.2	19.15
794.4	19.10
794.6	19.54
794.8	19.03
795.0	19.71
795.2	19.57
795.4	19.47
795.6	19.20
795.8	18.82
796.0	19.06
796.2	19.79
796.4	20.12
796.6	20.49
796.8	20.18
797.0	19.12
797.2	19.38
797.4	19.05
797.6	18.72
797.8	18.64
798.0	18.08
798.2	17.61
798.4	17.29
798.6	16.40
798.8	15.91
799.0	16.46
799.2	16.77
799.4	17.49
799.6	17.96
799.8	18.43
800.0	18.97

